TITLE,453 Au Runpeng POST centrifuga 1000RCF surn_10-01-25
DATA TYPE,ULTRAVIOLET SPECTRUM
ORIGIN,JASCO
OWNER,
DATE,25/01/10
TIME,11:45:25
SPECTROMETER/DATA SYSTEM,
LOCALE,1040
RESOLUTION,
DELTAX,-0.5
XUNITS,NANOMETERS
YUNITS,ABSORBANCE
FIRSTX, 1200.0000
LASTX,  200.0000
NPOINTS,    2001
FIRSTY,    -0.00030
MAXY,     0.14328
MINY,    -0.00097
XYDATA
1200.0000,-0.000298159
1199.5000,-0.000301323
1199.0000,-0.000292328
1198.5000,-0.000311078
1198.0000,-0.000325461
1197.5000,-0.000305989
1197.0000,-0.00029655
1196.5000,-0.00031093
1196.0000,-0.000313558
1195.5000,-0.000309886
1195.0000,-0.000321378
1194.5000,-0.000311167
1194.0000,-0.000345626
1193.5000,-0.000347646
1193.0000,-0.00035742
1192.5000,-0.000348889
1192.0000,-0.000358808
1191.5000,-0.000348826
1191.0000,-0.000348747
1190.5000,-0.000295326
1190.0000,-0.000306563
1189.5000,-0.00025962
1189.0000,-0.000293721
1188.5000,-0.000283186
1188.0000,-0.000316737
1187.5000,-0.000269951
1187.0000,-0.000255284
1186.5000,-0.000242423
1186.0000,-0.000251578
1185.5000,-0.000238313
1185.0000,-0.000263261
1184.5000,-0.000261955
1184.0000,-0.000209209
1183.5000,-0.000195558
1183.0000,-0.000219804
1182.5000,-0.000213197
1182.0000,-0.00021785
1181.5000,-0.000207444
1181.0000,-0.00017102
1180.5000,-0.000139257
1180.0000,-0.000148791
1179.5000,-0.000146502
1179.0000,-0.000126118
1178.5000,-0.000138178
1178.0000,-0.000107277
1177.5000,-0.000102546
1177.0000,-7.27172E-005
1176.5000,-6.69344E-005
1176.0000,-8.98809E-005
1175.5000,-0.000113021
1175.0000,-0.00012564
1174.5000,-0.000198878
1174.0000,-0.000187647
1173.5000,-0.000174829
1173.0000,-0.000135239
1172.5000,-0.000154593
1172.0000,-0.000118591
1171.5000,-0.000129818
1171.0000,-0.000112447
1170.5000,-0.000150552
1170.0000,-0.000144752
1169.5000,-0.000157619
1169.0000,-0.000136007
1168.5000,-0.000143464
1168.0000,-0.000166738
1167.5000,-0.000182646
1167.0000,-0.00015876
1166.5000,-0.000150433
1166.0000,-0.000117945
1165.5000,-0.000190104
1165.0000,-0.000190974
1164.5000,-0.000233754
1164.0000,-0.000203254
1163.5000,-0.000236759
1163.0000,-0.000251784
1162.5000,-0.000228639
1162.0000,-0.000219683
1161.5000,-0.000263154
1161.0000,-0.000294735
1160.5000,-0.000313083
1160.0000,-0.000285135
1159.5000,-0.000318982
1159.0000,-0.000301861
1158.5000,-0.000313628
1158.0000,-0.0002981
1157.5000,-0.000361017
1157.0000,-0.00038701
1156.5000,-0.000401889
1156.0000,-0.000437263
1155.5000,-0.000483793
1155.0000,-0.000494429
1154.5000,-0.000480256
1154.0000,-0.000521481
1153.5000,-0.000542365
1153.0000,-0.000575501
1152.5000,-0.000628592
1152.0000,-0.000643073
1151.5000,-0.00065857
1151.0000,-0.000680279
1150.5000,-0.000704579
1150.0000,-0.000741271
1149.5000,-0.000717882
1149.0000,-0.000775278
1148.5000,-0.000794408
1148.0000,-0.000840029
1147.5000,-0.000804997
1147.0000,-0.000819561
1146.5000,-0.000881255
1146.0000,-0.000915591
1145.5000,-0.000880701
1145.0000,-0.000917607
1144.5000,-0.000921295
1144.0000,-0.000963211
1143.5000,-0.000945597
1143.0000,-0.000960894
1142.5000,-0.000914688
1142.0000,-0.000970762
1141.5000,-0.000957409
1141.0000,-0.00094093
1140.5000,-0.000922089
1140.0000,-0.000917904
1139.5000,-0.000888033
1139.0000,-0.000910679
1138.5000,-0.000895305
1138.0000,-0.000900386
1137.5000,-0.00087595
1137.0000,-0.00088851
1136.5000,-0.000808002
1136.0000,-0.000781023
1135.5000,-0.000738763
1135.0000,-0.000742772
1134.5000,-0.000709762
1134.0000,-0.000710302
1133.5000,-0.000678428
1133.0000,-0.000652462
1132.5000,-0.000633459
1132.0000,-0.000625423
1131.5000,-0.000629305
1131.0000,-0.000616437
1130.5000,-0.000550092
1130.0000,-0.000547546
1129.5000,-0.000568077
1129.0000,-0.000531772
1128.5000,-0.000532665
1128.0000,-0.000491962
1127.5000,-0.000476012
1127.0000,-0.000462524
1126.5000,-0.000470117
1126.0000,-0.000433269
1125.5000,-0.000451007
1125.0000,-0.000468172
1124.5000,-0.000456152
1124.0000,-0.000455937
1123.5000,-0.000454506
1123.0000,-0.000432455
1122.5000,-0.00044453
1122.0000,-0.000408906
1121.5000,-0.000418284
1121.0000,-0.00040013
1120.5000,-0.000445286
1120.0000,-0.000445356
1119.5000,-0.000484512
1119.0000,-0.000475994
1118.5000,-0.00051952
1118.0000,-0.000501176
1117.5000,-0.000553123
1117.0000,-0.000536023
1116.5000,-0.000526663
1116.0000,-0.000512954
1115.5000,-0.000520109
1115.0000,-0.000487913
1114.5000,-0.000538442
1114.0000,-0.000478553
1113.5000,-0.000477788
1113.0000,-0.000448463
1112.5000,-0.000456085
1112.0000,-0.000459227
1111.5000,-0.000476053
1111.0000,-0.00048137
1110.5000,-0.000498272
1110.0000,-0.000487704
1109.5000,-0.000466458
1109.0000,-0.000428041
1108.5000,-0.000453251
1108.0000,-0.000421033
1107.5000,-0.000442249
1107.0000,-0.000435536
1106.5000,-0.000429916
1106.0000,-0.00041074
1105.5000,-0.000418098
1105.0000,-0.000420429
1104.5000,-0.000423804
1104.0000,-0.000444659
1103.5000,-0.000420524
1103.0000,-0.000420167
1102.5000,-0.000366137
1102.0000,-0.000362727
1101.5000,-0.000326931
1101.0000,-0.000370727
1100.5000,-0.000370232
1100.0000,-0.000387172
1099.5000,-0.000376115
1099.0000,-0.00040865
1098.5000,-0.000349513
1098.0000,-0.000406854
1097.5000,-0.0004218
1097.0000,-0.000469094
1096.5000,-0.00043089
1096.0000,-0.000426305
1095.5000,-0.000396001
1095.0000,-0.000396293
1094.5000,-0.00041247
1094.0000,-0.000396967
1093.5000,-0.000402449
1093.0000,-0.000449874
1092.5000,-0.000404506
1092.0000,-0.000411626
1091.5000,-0.000359195
1091.0000,-0.000355496
1090.5000,-0.000361002
1090.0000,-0.000397478
1089.5000,-0.000361601
1089.0000,-0.000359222
1088.5000,-0.000334857
1088.0000,-0.000315219
1087.5000,-0.000298472
1087.0000,-0.000309027
1086.5000,-0.000311262
1086.0000,-0.000303554
1085.5000,-0.000295804
1085.0000,-0.000269402
1084.5000,-0.000262725
1084.0000,-0.000242093
1083.5000,-0.000271647
1083.0000,-0.00024053
1082.5000,-0.000264573
1082.0000,-0.000234324
1081.5000,-0.000207033
1081.0000,-0.000192786
1080.5000,-0.000236818
1080.0000,-0.000248511
1079.5000,-0.000284884
1079.0000,-0.000258532
1078.5000,-0.000247466
1078.0000,-0.00026923
1077.5000,-0.000264275
1077.0000,-0.000219662
1076.5000,-0.000265161
1076.0000,-0.00024625
1075.5000,-0.000307045
1075.0000,-0.000292174
1074.5000,-0.000291488
1074.0000,-0.000265618
1073.5000,-0.000316
1073.0000,-0.000276598
1072.5000,-0.000280767
1072.0000,-0.000284801
1071.5000,-0.000322557
1071.0000,-0.000265472
1070.5000,-0.00029089
1070.0000,-0.000287632
1069.5000,-0.000304896
1069.0000,-0.000276023
1068.5000,-0.000276382
1068.0000,-0.000281912
1067.5000,-0.0002914
1067.0000,-0.000308648
1066.5000,-0.00029472
1066.0000,-0.00029676
1065.5000,-0.000314032
1065.0000,-0.000268154
1064.5000,-0.00026235
1064.0000,-0.000235027
1063.5000,-0.000229132
1063.0000,-0.000257082
1062.5000,-0.000230073
1062.0000,-0.000195923
1061.5000,-0.000185827
1061.0000,-0.000185818
1060.5000,-0.000177869
1060.0000,-0.000147998
1059.5000,-0.000123726
1059.0000,-0.000122419
1058.5000,-0.000116306
1058.0000,-0.000129385
1057.5000,-0.000102774
1057.0000,-0.000134763
1056.5000,-0.000138696
1056.0000,-0.000159736
1055.5000,-0.00013279
1055.0000,-0.000159967
1054.5000,-0.000155767
1054.0000,-0.000169256
1053.5000,-0.000121832
1053.0000,-0.000148984
1052.5000,-0.000145436
1052.0000,-0.000161911
1051.5000,-0.000126828
1051.0000,-0.000137657
1050.5000,-0.000141068
1050.0000,-0.000124918
1049.5000,-0.000115449
1049.0000,-0.000160412
1048.5000,-0.000127662
1048.0000,-0.000167819
1047.5000,-0.000135494
1047.0000,-0.000141137
1046.5000,-0.0001143
1046.0000,-0.00015244
1045.5000,-0.000162666
1045.0000,-0.000189731
1044.5000,-0.000185254
1044.0000,-0.00022223
1043.5000,-0.000209305
1043.0000,-0.000223161
1042.5000,-0.000232038
1042.0000,-0.000202214
1041.5000,-0.000204328
1041.0000,-0.00021407
1040.5000,-0.000235579
1040.0000,-0.000216878
1039.5000,-0.000226693
1039.0000,-0.000210124
1038.5000,-0.000198345
1038.0000,-0.000186481
1037.5000,-0.000245747
1037.0000,-0.000245723
1036.5000,-0.000290582
1036.0000,-0.000268874
1035.5000,-0.000295583
1035.0000,-0.000283492
1034.5000,-0.000319119
1034.0000,-0.000330577
1033.5000,-0.000328836
1033.0000,-0.000274459
1032.5000,-0.000331566
1032.0000,-0.000282346
1031.5000,-0.000302214
1031.0000,-0.000243121
1030.5000,-0.000317406
1030.0000,-0.00029995
1029.5000,-0.000331721
1029.0000,-0.000304339
1028.5000,-0.000321351
1028.0000,-0.000286254
1027.5000,-0.000316429
1027.0000,-0.000300978
1026.5000,-0.000351014
1026.0000,-0.000307945
1025.5000,-0.00036691
1025.0000,-0.00030239
1024.5000,-0.000308394
1024.0000,-0.0002905
1023.5000,-0.000330678
1023.0000,-0.000298423
1022.5000,-0.000323881
1022.0000,-0.000261408
1021.5000,-0.000299615
1021.0000,-0.000250446
1020.5000,-0.000244092
1020.0000,-0.000207524
1019.5000,-0.000231085
1019.0000,-0.000178047
1018.5000,-0.00022784
1018.0000,-0.000195802
1017.5000,-0.000233688
1017.0000,-0.000266147
1016.5000,-0.000253959
1016.0000,-0.00023565
1015.5000,-0.000250141
1015.0000,-0.000250269
1014.5000,-0.000259105
1014.0000,-0.000229116
1013.5000,-0.000226311
1013.0000,-0.000185813
1012.5000,-0.000196213
1012.0000,-0.000195492
1011.5000,-0.000225936
1011.0000,-0.000241842
1010.5000,-0.000166589
1010.0000,-0.000199572
1009.5000,-0.000148066
1009.0000,-0.000172632
1008.5000,-0.000143938
1008.0000,-0.000140759
1007.5000,-8.3821E-005
1007.0000,-0.0001401
1006.5000,-0.000124002
1006.0000,-0.000177651
1005.5000,-0.000102642
1005.0000,-0.000134169
1004.5000,-0.000101775
1004.0000,-0.000136231
1003.5000,-0.000101727
1003.0000,-9.86577E-005
1002.5000,9.92671E-007
1002.0000,-7.50511E-005
1001.5000,-5.26551E-005
1001.0000,-4.69872E-005
1000.5000,7.34365E-006
1000.0000,-7.66536E-006
999.5000,-7.84763E-006
999.0000,-2.86723E-005
998.5000,6.49237E-006
998.0000,-2.57176E-005
997.5000,1.39925E-005
997.0000,-1.62858E-005
996.5000,1.99076E-005
996.0000,-2.16355E-005
995.5000,3.44435E-005
995.0000,5.6638E-005
994.5000,2.10962E-005
994.0000,5.1409E-005
993.5000,3.7207E-005
993.0000,9.9734E-006
992.5000,-1.4078E-005
992.0000,-5.40791E-006
991.5000,-3.46827E-005
991.0000,-2.68788E-005
990.5000,-5.35603E-005
990.0000,-2.555E-005
989.5000,-2.77793E-005
989.0000,-2.00112E-005
988.5000,-2.97148E-005
988.0000,-1.93737E-005
987.5000,-2.04088E-005
987.0000,-9.3336E-005
986.5000,-0.000146507
986.0000,-9.96565E-005
985.5000,-0.000112393
985.0000,-7.05577E-005
984.5000,-0.000159466
984.0000,-0.000135935
983.5000,-0.000198754
983.0000,-0.000200125
982.5000,-0.000250257
982.0000,-0.000217951
981.5000,-0.000248468
981.0000,-0.000240498
980.5000,-0.000325438
980.0000,-0.000263106
979.5000,-0.000330486
979.0000,-0.000279732
978.5000,-0.000361254
978.0000,-0.000369283
977.5000,-0.000371557
977.0000,-0.000286729
976.5000,-0.000320406
976.0000,-0.000281673
975.5000,-0.000334081
975.0000,-0.000231741
974.5000,-0.000280105
974.0000,-0.00024571
973.5000,-0.000319275
973.0000,-0.00024537
972.5000,-0.00025614
972.0000,-0.000285012
971.5000,-0.0003013
971.0000,-0.000185687
970.5000,-0.000230412
970.0000,-0.00018461
969.5000,-0.000227001
969.0000,-0.000245644
968.5000,-0.000237006
968.0000,-0.000232209
967.5000,-0.000234097
967.0000,-0.000198555
966.5000,-0.000210173
966.0000,-0.000203982
965.5000,-0.000245762
965.0000,-0.000249425
964.5000,-0.000222625
964.0000,-0.000304037
963.5000,-0.000276909
963.0000,-0.000415192
962.5000,-0.000362702
962.0000,-0.000431878
961.5000,-0.00042504
961.0000,-0.000467443
960.5000,-0.000460222
960.0000,-0.000527689
959.5000,-0.000494922
959.0000,-0.000627438
958.5000,-0.00060451
958.0000,-0.000643308
957.5000,-0.000582574
957.0000,-0.000660661
956.5000,-0.000664639
956.0000,-0.000601566
955.5000,-0.000608301
955.0000,-0.000713503
954.5000,-0.000667192
954.0000,-0.000715266
953.5000,-0.000693575
953.0000,-0.000756766
952.5000,-0.00072906
952.0000,-0.000791558
951.5000,-0.000731864
951.0000,-0.000760031
950.5000,-0.000717941
950.0000,-0.000736152
949.5000,-0.000716603
949.0000,-0.000706894
948.5000,-0.000649397
948.0000,-0.000580595
947.5000,-0.000569379
947.0000,-0.000446932
946.5000,-0.000454243
946.0000,-0.000419918
945.5000,-0.00042292
945.0000,-0.000425771
944.5000,-0.000431848
944.0000,-0.0003506
943.5000,-0.000408615
943.0000,-0.000344735
942.5000,-0.000314746
942.0000,-0.000319029
941.5000,-0.000411586
941.0000,-0.000374682
940.5000,-0.000394548
940.0000,-0.000363301
939.5000,-0.000420545
939.0000,-0.000339046
938.5000,-0.000426815
938.0000,-0.000326225
937.5000,-0.000375415
937.0000,-0.000295707
936.5000,-0.000291269
936.0000,-0.000205148
935.5000,-0.000319236
935.0000,-0.000216846
934.5000,-0.000259908
934.0000,-0.000205766
933.5000,-0.000255849
933.0000,-0.00020863
932.5000,-0.000369883
932.0000,-0.000348943
931.5000,-0.000468657
931.0000,-0.000394636
930.5000,-0.000413886
930.0000,-0.000359619
929.5000,-0.000455448
929.0000,-0.00042181
928.5000,-0.000466574
928.0000,-0.000408955
927.5000,-0.000445422
927.0000,-0.000360609
926.5000,-0.000479765
926.0000,-0.000451897
925.5000,-0.000525711
925.0000,-0.000445963
924.5000,-0.000544162
924.0000,-0.000509109
923.5000,-0.000538677
923.0000,-0.000500951
922.5000,-0.000473901
922.0000,-0.000526347
921.5000,-0.000538819
921.0000,-0.000475172
920.5000,-0.000565032
920.0000,-0.000638841
919.5000,-0.000601431
919.0000,-0.000661309
918.5000,-0.000693402
918.0000,-0.000785238
917.5000,-0.00077936
917.0000,-0.000773475
916.5000,-0.000676443
916.0000,-0.000692634
915.5000,-0.000615636
915.0000,-0.000671273
914.5000,-0.000630094
914.0000,-0.000643075
913.5000,-0.000609293
913.0000,-0.000618114
912.5000,-0.000621178
912.0000,-0.000703375
911.5000,-0.000695447
911.0000,-0.000745135
910.5000,-0.000683034
910.0000,-0.000671185
909.5000,-0.000542046
909.0000,-0.000630053
908.5000,-0.000614312
908.0000,-0.000696154
907.5000,-0.000615925
907.0000,-0.000694725
906.5000,-0.000659587
906.0000,-0.00068549
905.5000,-0.000556926
905.0000,-0.000670429
904.5000,-0.000595577
904.0000,-0.000522271
903.5000,-0.000492015
903.0000,-0.000549559
902.5000,-0.000585152
902.0000,-0.000565135
901.5000,-0.000610459
901.0000,-0.000586116
900.5000,-0.000603798
900.0000,-0.000598599
899.5000,-0.000585029
899.0000,-0.000575959
898.5000,-0.000656239
898.0000,-0.000625774
897.5000,-0.000613268
897.0000,-0.000540856
896.5000,-0.000451991
896.0000,-0.000415563
895.5000,-0.000415218
895.0000,-0.000365408
894.5000,-0.000379946
894.0000,-0.000336387
893.5000,-0.000294035
893.0000,-0.000224476
892.5000,-0.000266308
892.0000,-8.08391E-005
891.5000,-0.000169427
891.0000,-6.78892E-005
890.5000,-0.000184896
890.0000,-7.4531E-005
889.5000,-0.000239457
889.0000,1.11487E-005
888.5000,-0.000204934
888.0000,-2.37586E-005
887.5000,-8.82241E-005
887.0000,9.6924E-005
886.5000,0.000100388
886.0000,0.000285293
885.5000,0.00027494
885.0000,0.000341578
884.5000,0.000308591
884.0000,0.000417607
883.5000,0.000349618
883.0000,0.000470408
882.5000,0.000615543
882.0000,0.000721871
881.5000,0.000574304
881.0000,0.000615951
880.5000,0.000469786
880.0000,0.00057745
879.5000,0.000625875
879.0000,0.000815709
878.5000,0.000708709
878.0000,0.000797876
877.5000,0.000622315
877.0000,0.0006978
876.5000,0.000750961
876.0000,0.0006722
875.5000,0.000675631
875.0000,0.000787379
874.5000,0.000979469
874.0000,0.00100252
873.5000,0.00103244
873.0000,0.000995755
872.5000,0.001144
872.0000,0.000978909
871.5000,0.000946293
871.0000,0.000841202
870.5000,0.000990015
870.0000,0.000824787
869.5000,0.000913128
869.0000,0.000864733
868.5000,0.000942238
868.0000,0.00079857
867.5000,0.000925641
867.0000,0.000598557
866.5000,0.000468824
866.0000,0.00043692
865.5000,0.000694898
865.0000,0.000456899
864.5000,0.00069359
864.0000,0.000652415
863.5000,0.000663214
863.0000,0.000265996
862.5000,0.000447924
862.0000,0.000330802
861.5000,0.000451717
861.0000,0.000269255
860.5000,0.000542379
860.0000,0.00035662
859.5000,0.000489781
859.0000,0.00016693
858.5000,5.46246E-005
858.0000,1.94518E-006
857.5000,-8.46817E-005
857.0000,-0.00019455
856.5000,-0.000138053
856.0000,-0.000177979
855.5000,2.21472E-006
855.0000,8.19395E-005
854.5000,3.19013E-005
854.0000,0.000171772
853.5000,0.000205581
853.0000,0.000198983
852.5000,0.000138716
852.0000,7.01229E-005
851.5000,9.64608E-005
851.0000,0.000497828
850.5000,0.000446786
850.0000,0.00156918
849.5000,0.00159983
849.0000,0.00156871
848.5000,0.00157239
848.0000,0.00155327
847.5000,0.00160874
847.0000,0.00160755
846.5000,0.00162098
846.0000,0.00161866
845.5000,0.00160708
845.0000,0.00164836
844.5000,0.00164432
844.0000,0.00161712
843.5000,0.00159472
843.0000,0.00157726
842.5000,0.00159668
842.0000,0.00161522
841.5000,0.00164598
841.0000,0.00164711
840.5000,0.00170104
840.0000,0.00174589
839.5000,0.00172433
839.0000,0.00176204
838.5000,0.00177184
838.0000,0.0017937
837.5000,0.00184793
837.0000,0.00184817
836.5000,0.00187103
836.0000,0.00185238
835.5000,0.00188713
835.0000,0.00187311
834.5000,0.00193637
834.0000,0.00196559
833.5000,0.00196957
833.0000,0.00196316
832.5000,0.00202814
832.0000,0.00199998
831.5000,0.00205326
831.0000,0.00209407
830.5000,0.00210957
830.0000,0.00209828
829.5000,0.00211206
829.0000,0.00211278
828.5000,0.00211664
828.0000,0.00208017
827.5000,0.00210428
827.0000,0.00209407
826.5000,0.00214835
826.0000,0.00216279
825.5000,0.00217152
825.0000,0.0021553
824.5000,0.00218963
824.0000,0.00215655
823.5000,0.00215031
823.0000,0.00216813
822.5000,0.00216017
822.0000,0.00212572
821.5000,0.00210939
821.0000,0.00210672
820.5000,0.00207797
820.0000,0.00211468
819.5000,0.00216445
819.0000,0.00215388
818.5000,0.00208706
818.0000,0.00211076
817.5000,0.00208153
817.0000,0.00208789
816.5000,0.00206371
816.0000,0.00208759
815.5000,0.00207037
815.0000,0.00204204
814.5000,0.00206455
814.0000,0.00207874
813.5000,0.00209401
813.0000,0.00209864
812.5000,0.00209288
812.0000,0.00216427
811.5000,0.00218257
811.0000,0.0021945
810.5000,0.00216754
810.0000,0.00213303
809.5000,0.00213321
809.0000,0.00211218
808.5000,0.00211961
808.0000,0.00210933
807.5000,0.0021325
807.0000,0.00210719
806.5000,0.0021246
806.0000,0.00217389
805.5000,0.00220704
805.0000,0.00224434
804.5000,0.00226061
804.0000,0.00222985
803.5000,0.00221434
803.0000,0.00221137
802.5000,0.00222848
802.0000,0.00223531
801.5000,0.0022457
801.0000,0.00226097
800.5000,0.00224951
800.0000,0.00225663
799.5000,0.00226299
799.0000,0.00230035
798.5000,0.00230094
798.0000,0.00232642
797.5000,0.00231846
797.0000,0.00231775
796.5000,0.00234905
796.0000,0.00233824
795.5000,0.00232761
795.0000,0.0023206
794.5000,0.00232743
794.0000,0.00235398
793.5000,0.00237572
793.0000,0.00239514
792.5000,0.00237739
792.0000,0.00237715
791.5000,0.00241902
791.0000,0.00244052
790.5000,0.00246678
790.0000,0.00244474
789.5000,0.00242461
789.0000,0.00241855
788.5000,0.00241391
788.0000,0.00244207
787.5000,0.002459
787.0000,0.00244783
786.5000,0.00247818
786.0000,0.00244343
785.5000,0.00248038
785.0000,0.00246571
784.5000,0.00247877
784.0000,0.00247818
783.5000,0.00249457
783.0000,0.00250087
782.5000,0.00248477
782.0000,0.00247996
781.5000,0.00248157
781.0000,0.00247717
780.5000,0.00245989
780.0000,0.00244801
779.5000,0.00245941
779.0000,0.00245062
778.5000,0.0024685
778.0000,0.0024679
777.5000,0.00248602
777.0000,0.00249986
776.5000,0.002508
776.0000,0.00250954
775.5000,0.00249594
775.0000,0.0025023
774.5000,0.00248555
774.0000,0.00249202
773.5000,0.00251554
773.0000,0.00253734
