TITLE,454 Au Runpeng POST centrifuga 1000RCF sedim_10-01-25
DATA TYPE,ULTRAVIOLET SPECTRUM
ORIGIN,JASCO
OWNER,
DATE,25/01/10
TIME,11:52:53
SPECTROMETER/DATA SYSTEM,
LOCALE,1040
RESOLUTION,
DELTAX,-0.5
XUNITS,NANOMETERS
YUNITS,ABSORBANCE
FIRSTX, 1200.0000
LASTX,  200.0000
NPOINTS,    2001
FIRSTY,     0.00294
MAXY,     0.60660
MINY,     0.00255
XYDATA
1200.0000,0.00294402
1199.5000,0.00292075
1199.0000,0.00294273
1198.5000,0.0029307
1198.0000,0.00293512
1197.5000,0.00294672
1197.0000,0.00293165
1196.5000,0.00291387
1196.0000,0.00290031
1195.5000,0.0029165
1195.0000,0.00293537
1194.5000,0.00294104
1194.0000,0.00292677
1193.5000,0.00290477
1193.0000,0.00288554
1192.5000,0.00286496
1192.0000,0.00284537
1191.5000,0.00288464
1191.0000,0.0028635
1190.5000,0.00288559
1190.0000,0.00287928
1189.5000,0.00290824
1189.0000,0.00290389
1188.5000,0.00289293
1188.0000,0.00285599
1187.5000,0.00287372
1187.0000,0.00288317
1186.5000,0.00288881
1186.0000,0.00287638
1185.5000,0.00288504
1185.0000,0.002895
1184.5000,0.00292315
1184.0000,0.00295653
1183.5000,0.00296924
1183.0000,0.00296721
1182.5000,0.00297398
1182.0000,0.00296
1181.5000,0.00295978
1181.0000,0.00298414
1180.5000,0.00300297
1180.0000,0.00298006
1179.5000,0.00299882
1179.0000,0.00297355
1178.5000,0.00298135
1178.0000,0.00299196
1177.5000,0.00302906
1177.0000,0.00304377
1176.5000,0.00305673
1176.0000,0.00304285
1175.5000,0.00303594
1175.0000,0.00302058
1174.5000,0.00302317
1174.0000,0.00304278
1173.5000,0.00304409
1173.0000,0.00306089
1172.5000,0.0030464
1172.0000,0.00308077
1171.5000,0.00308136
1171.0000,0.00308395
1170.5000,0.00306005
1170.0000,0.00307768
1169.5000,0.00306853
1169.0000,0.00311537
1168.5000,0.00309396
1168.0000,0.0030813
1167.5000,0.00306502
1167.0000,0.00307681
1166.5000,0.00310478
1166.0000,0.00313087
1165.5000,0.00312233
1165.0000,0.00313007
1164.5000,0.00310547
1164.0000,0.003137
1163.5000,0.00308847
1163.0000,0.00308922
1162.5000,0.00306862
1162.0000,0.00306473
1161.5000,0.00299494
1161.0000,0.00300764
1160.5000,0.00300597
1160.0000,0.00301992
1159.5000,0.00297264
1159.0000,0.00298933
1158.5000,0.0029394
1158.0000,0.00295309
1157.5000,0.00288243
1157.0000,0.00287607
1156.5000,0.00284396
1156.0000,0.00286248
1155.5000,0.00283445
1155.0000,0.00282716
1154.5000,0.00283047
1154.0000,0.00280124
1153.5000,0.00278529
1153.0000,0.00276667
1152.5000,0.00272536
1152.0000,0.00271519
1151.5000,0.00269792
1151.0000,0.0026784
1150.5000,0.00264797
1150.0000,0.00262306
1149.5000,0.0026122
1149.0000,0.00257989
1148.5000,0.0025753
1148.0000,0.0025588
1147.5000,0.00259753
1147.0000,0.00259706
1146.5000,0.00259277
1146.0000,0.00257126
1145.5000,0.00260973
1145.0000,0.00257926
1144.5000,0.00256442
1144.0000,0.00254807
1143.5000,0.00259467
1143.0000,0.00260379
1142.5000,0.00266131
1142.0000,0.0026211
1141.5000,0.00266435
1141.0000,0.00266521
1140.5000,0.00271496
1140.0000,0.00269133
1139.5000,0.00271831
1139.0000,0.00270991
1138.5000,0.00274779
1138.0000,0.00276457
1137.5000,0.00280185
1137.0000,0.00279713
1136.5000,0.00285558
1136.0000,0.00293386
1135.5000,0.00298643
1135.0000,0.0030099
1134.5000,0.00304746
1134.0000,0.00305558
1133.5000,0.00311242
1133.0000,0.00314955
1132.5000,0.00321089
1132.0000,0.00321931
1131.5000,0.00325496
1131.0000,0.00326507
1130.5000,0.0033169
1130.0000,0.00336252
1129.5000,0.00339214
1129.0000,0.00342668
1128.5000,0.00345842
1128.0000,0.00348296
1127.5000,0.00350347
1127.0000,0.00353144
1126.5000,0.00354715
1126.0000,0.00359956
1125.5000,0.00360505
1125.0000,0.00360539
1124.5000,0.00360907
1124.0000,0.00363167
1123.5000,0.00364869
1123.0000,0.00369559
1122.5000,0.00369806
1122.0000,0.00373221
1121.5000,0.00375156
1121.0000,0.00378445
1120.5000,0.00377614
1120.0000,0.00376183
1119.5000,0.003754
1119.0000,0.00376248
1118.5000,0.00374334
1118.0000,0.00379553
1117.5000,0.00377148
1117.0000,0.00380055
1116.5000,0.00379441
1116.0000,0.00382509
1115.5000,0.00379901
1115.0000,0.00383885
1114.5000,0.00382382
1114.0000,0.00387148
1113.5000,0.00386988
1113.0000,0.00389882
1112.5000,0.00390348
1112.0000,0.00393029
1111.5000,0.0039014
1111.0000,0.00389687
1110.5000,0.00387363
1110.0000,0.00387762
1109.5000,0.00389448
1109.0000,0.00395313
1108.5000,0.00396751
1108.0000,0.00399207
1107.5000,0.00397684
1107.0000,0.00396724
1106.5000,0.00395972
1106.0000,0.00397883
1105.5000,0.0039681
1105.0000,0.00396028
1104.5000,0.00398839
1104.0000,0.00398605
1103.5000,0.00397325
1103.0000,0.0039876
1102.5000,0.00400717
1102.0000,0.00403074
1101.5000,0.00403376
1101.0000,0.00399202
1100.5000,0.00399469
1100.0000,0.00398891
1099.5000,0.00400768
1099.0000,0.00400804
1098.5000,0.00403394
1098.0000,0.00399161
1097.5000,0.00399708
1097.0000,0.00396856
1096.5000,0.0039778
1096.0000,0.00398689
1095.5000,0.00403589
1095.0000,0.00402773
1094.5000,0.00404696
1094.0000,0.00404609
1093.5000,0.00405636
1093.0000,0.00399224
1092.5000,0.00402677
1092.0000,0.00402947
1091.5000,0.00406459
1091.0000,0.00406851
1090.5000,0.00408929
1090.0000,0.00407572
1089.5000,0.00410178
1089.0000,0.00411583
1088.5000,0.00410912
1088.0000,0.00410751
1087.5000,0.00414918
1087.0000,0.00412024
1086.5000,0.00413331
1086.0000,0.00409785
1085.5000,0.00412165
1085.0000,0.00414903
1084.5000,0.00415216
1084.0000,0.00417234
1083.5000,0.00417128
1083.0000,0.00417401
1082.5000,0.00416216
1082.0000,0.00418269
1081.5000,0.00419178
1081.0000,0.00422561
1080.5000,0.00420029
1080.0000,0.00420561
1079.5000,0.00415774
1079.0000,0.00418866
1078.5000,0.00418841
1078.0000,0.00420574
1077.5000,0.00420314
1077.0000,0.0042504
1076.5000,0.00421171
1076.0000,0.0042404
1075.5000,0.00420516
1075.0000,0.00424446
1074.5000,0.00423516
1074.0000,0.00424509
1073.5000,0.0042071
1073.0000,0.00423565
1072.5000,0.00423261
1072.0000,0.00423366
1071.5000,0.00421882
1071.0000,0.00428577
1070.5000,0.00425984
1070.0000,0.00427193
1069.5000,0.00426987
1069.0000,0.00431054
1068.5000,0.00431236
1068.0000,0.00431543
1067.5000,0.00432305
1067.0000,0.00433036
1066.5000,0.00431312
1066.0000,0.00433233
1065.5000,0.00432196
1065.0000,0.00433737
1064.5000,0.00431888
1064.0000,0.00433188
1063.5000,0.00436647
1063.0000,0.00435821
1062.5000,0.00435542
1062.0000,0.00436968
1061.5000,0.00437033
1061.0000,0.0043823
1060.5000,0.00437202
1060.0000,0.00436698
1059.5000,0.00438712
1059.0000,0.0043669
1058.5000,0.00437914
1058.0000,0.00438636
1057.5000,0.00442797
1057.0000,0.00439401
1056.5000,0.00438809
1056.0000,0.00439674
1055.5000,0.00441762
1055.0000,0.00440662
1054.5000,0.00441622
1054.0000,0.00444543
1053.5000,0.00444201
1053.0000,0.00441115
1052.5000,0.00442681
1052.0000,0.00442296
1051.5000,0.00442003
1051.0000,0.00440351
1050.5000,0.00443964
1050.0000,0.00444121
1049.5000,0.004467
1049.0000,0.00445205
1048.5000,0.00450986
1048.0000,0.00448802
1047.5000,0.00450031
1047.0000,0.00451167
1046.5000,0.00452405
1046.0000,0.00451125
1045.5000,0.00451547
1045.0000,0.00448679
1044.5000,0.00451093
1044.0000,0.0045078
1043.5000,0.00455523
1043.0000,0.00455226
1042.5000,0.00454855
1042.0000,0.00454146
1041.5000,0.00455132
1041.0000,0.00454386
1040.5000,0.00455906
1040.0000,0.00456305
1039.5000,0.00455075
1039.0000,0.0045539
1038.5000,0.00457787
1038.0000,0.00456187
1037.5000,0.00457257
1037.0000,0.00460188
1036.5000,0.00457385
1036.0000,0.00457189
1035.5000,0.00455523
1035.0000,0.00460366
1034.5000,0.004603
1034.0000,0.00462016
1033.5000,0.00459608
1033.0000,0.00464339
1032.5000,0.00459857
1032.0000,0.00463946
1031.5000,0.00463699
1031.0000,0.0046736
1030.5000,0.00467563
1030.0000,0.00471747
1029.5000,0.00468349
1029.0000,0.00474034
1028.5000,0.00471725
1028.0000,0.00475858
1027.5000,0.00470475
1027.0000,0.00473549
1026.5000,0.00469777
1026.0000,0.00476617
1025.5000,0.00471058
1025.0000,0.00479964
1024.5000,0.0047928
1024.0000,0.00484835
1023.5000,0.00483081
1023.0000,0.0048445
1022.5000,0.0047925
1022.0000,0.00485118
1021.5000,0.00481673
1021.0000,0.00483934
1020.5000,0.00482273
1020.0000,0.00487268
1019.5000,0.00487199
1019.0000,0.00490267
1018.5000,0.00488718
1018.0000,0.00488985
1017.5000,0.00487053
1017.0000,0.00486121
1016.5000,0.00490365
1016.0000,0.00493322
1015.5000,0.00492957
1015.0000,0.00495635
1014.5000,0.004929
1014.0000,0.00491564
1013.5000,0.00495575
1013.0000,0.00499404
1012.5000,0.00501712
1012.0000,0.0050198
1011.5000,0.00500987
1011.0000,0.00502887
1010.5000,0.00509462
1010.0000,0.0050749
1009.5000,0.00509238
1009.0000,0.00509351
1008.5000,0.00511924
1008.0000,0.00511498
1007.5000,0.00517852
1007.0000,0.00517308
1006.5000,0.00522441
1006.0000,0.00519547
1005.5000,0.00525277
1005.0000,0.0052218
1004.5000,0.00525938
1004.0000,0.00526488
1003.5000,0.00530088
1003.0000,0.00528811
1002.5000,0.00533651
1002.0000,0.00531651
1001.5000,0.00539402
1001.0000,0.00539097
1000.5000,0.00539307
1000.0000,0.00537336
999.5000,0.00540209
999.0000,0.00536612
998.5000,0.00541468
998.0000,0.00539734
997.5000,0.00541372
997.0000,0.00538029
996.5000,0.00540995
996.0000,0.00539665
995.5000,0.00546993
995.0000,0.00546231
994.5000,0.0054662
994.0000,0.00545376
993.5000,0.00550141
993.0000,0.0054536
992.5000,0.00544997
992.0000,0.00545997
991.5000,0.00544786
991.0000,0.00544779
990.5000,0.00547423
990.0000,0.00549416
989.5000,0.00547404
989.0000,0.00554258
988.5000,0.00556148
988.0000,0.00553206
987.5000,0.00553846
987.0000,0.00553169
986.5000,0.00549413
986.0000,0.00552468
985.5000,0.00545802
985.0000,0.00551265
984.5000,0.00550199
984.0000,0.0055369
983.5000,0.00544139
983.0000,0.00548304
982.5000,0.00548141
982.0000,0.00551662
981.5000,0.00551995
981.0000,0.0055508
980.5000,0.00552068
980.0000,0.00558332
979.5000,0.00547141
979.0000,0.00551823
978.5000,0.00544769
978.0000,0.00551977
977.5000,0.00549086
977.0000,0.00560666
976.5000,0.00560147
976.0000,0.0056639
975.5000,0.00559344
975.0000,0.0056838
974.5000,0.0056238
974.0000,0.00563854
973.5000,0.00561179
973.0000,0.00565971
972.5000,0.00561936
972.0000,0.00567411
971.5000,0.00562921
971.0000,0.00571391
970.5000,0.00568346
970.0000,0.00572721
969.5000,0.00568123
969.0000,0.0056705
968.5000,0.00568042
968.0000,0.00569563
967.5000,0.00574719
967.0000,0.00576863
966.5000,0.00575521
966.0000,0.00577192
965.5000,0.00576746
965.0000,0.00580834
964.5000,0.00578074
964.0000,0.00574365
963.5000,0.00583251
963.0000,0.00575831
962.5000,0.00577968
962.0000,0.00572834
961.5000,0.00575689
961.0000,0.00568968
960.5000,0.00570023
960.0000,0.00562545
959.5000,0.00571661
959.0000,0.00564548
958.5000,0.00566888
958.0000,0.00567036
957.5000,0.00571746
957.0000,0.00568083
956.5000,0.00570187
956.0000,0.00568675
955.5000,0.0057707
955.0000,0.00566194
954.5000,0.00571227
954.0000,0.00572587
953.5000,0.00581881
953.0000,0.00580515
952.5000,0.00584166
952.0000,0.00582332
951.5000,0.0058581
951.0000,0.00584091
950.5000,0.00585257
950.0000,0.00587219
949.5000,0.00581841
949.0000,0.00579294
948.5000,0.00586932
948.0000,0.00588691
947.5000,0.0059404
947.0000,0.00603631
946.5000,0.00608556
946.0000,0.00610639
945.5000,0.00606126
945.0000,0.00609623
944.5000,0.00602839
944.0000,0.00612711
943.5000,0.00604303
943.0000,0.0061063
942.5000,0.00609891
942.0000,0.00609597
941.5000,0.00604047
941.0000,0.00609316
940.5000,0.00607351
940.0000,0.0061647
939.5000,0.0060445
939.0000,0.00614186
938.5000,0.00608496
938.0000,0.00613935
937.5000,0.00606139
937.0000,0.00614189
936.5000,0.0061141
936.0000,0.00618598
935.5000,0.00609761
935.0000,0.00621252
934.5000,0.00616482
934.0000,0.00621363
933.5000,0.00621887
933.0000,0.00625487
932.5000,0.00615858
932.0000,0.00623988
931.5000,0.00607546
931.0000,0.00616935
930.5000,0.00608732
930.0000,0.0061683
929.5000,0.00614292
929.0000,0.00617285
928.5000,0.0061922
928.0000,0.00621504
927.5000,0.0061966
927.0000,0.00626391
926.5000,0.00622551
926.0000,0.0063363
925.5000,0.00632873
925.0000,0.00637219
924.5000,0.00636432
924.0000,0.0063593
923.5000,0.006401
923.0000,0.00646923
922.5000,0.00649962
922.0000,0.006531
921.5000,0.00658133
921.0000,0.00663638
920.5000,0.0065957
920.0000,0.00656203
919.5000,0.0066515
919.0000,0.00658787
918.5000,0.0066046
918.0000,0.00650078
917.5000,0.00651127
917.0000,0.00654359
916.5000,0.00662663
916.0000,0.00657059
915.5000,0.00668484
915.0000,0.00664501
914.5000,0.00677598
914.0000,0.00680335
913.5000,0.00685779
913.0000,0.00686142
912.5000,0.00688623
912.0000,0.00681244
911.5000,0.00688085
911.0000,0.00683786
910.5000,0.00693259
910.0000,0.00687725
909.5000,0.00696114
909.0000,0.00691115
908.5000,0.00694295
908.0000,0.00693281
907.5000,0.00700117
907.0000,0.00696443
906.5000,0.00704661
906.0000,0.00692623
905.5000,0.00700039
905.0000,0.00688655
904.5000,0.00692534
904.0000,0.00698466
903.5000,0.00692695
903.0000,0.00687383
902.5000,0.00689417
902.0000,0.00702408
901.5000,0.00706949
901.0000,0.00714037
900.5000,0.00705515
900.0000,0.00711786
899.5000,0.00715577
899.0000,0.00712104
898.5000,0.00705669
898.0000,0.00705554
897.5000,0.00715027
897.0000,0.00729589
896.5000,0.00739642
896.0000,0.00756649
895.5000,0.00746947
895.0000,0.00752338
894.5000,0.00751492
894.0000,0.00764661
893.5000,0.00758255
893.0000,0.00769122
892.5000,0.0076954
892.0000,0.00782277
891.5000,0.00763849
891.0000,0.00777856
890.5000,0.00756964
890.0000,0.00774862
889.5000,0.00768202
889.0000,0.00795595
888.5000,0.00783546
888.0000,0.00795386
887.5000,0.00792831
887.0000,0.00820028
886.5000,0.00821951
886.0000,0.00840378
885.5000,0.00836518
885.0000,0.0085754
884.5000,0.00861159
884.0000,0.00874337
883.5000,0.00862499
883.0000,0.00879619
882.5000,0.00876317
882.0000,0.00883985
881.5000,0.00864404
881.0000,0.00860692
880.5000,0.00845955
880.0000,0.00843189
879.5000,0.00853874
879.0000,0.00880277
878.5000,0.00872676
878.0000,0.00879023
877.5000,0.00878276
877.0000,0.00884248
876.5000,0.00878598
876.0000,0.00872019
875.5000,0.00883514
875.0000,0.00885063
874.5000,0.00900224
874.0000,0.00910375
873.5000,0.00913231
873.0000,0.00904967
872.5000,0.00916732
872.0000,0.00903265
871.5000,0.00910788
871.0000,0.00902227
870.5000,0.00920976
870.0000,0.00910197
869.5000,0.00920941
869.0000,0.00898058
868.5000,0.00913424
868.0000,0.00890934
867.5000,0.00912994
867.0000,0.0089801
866.5000,0.00899778
866.0000,0.00909883
865.5000,0.00936443
865.0000,0.00931658
864.5000,0.00963148
864.0000,0.00965231
863.5000,0.0097958
863.0000,0.00952749
862.5000,0.0096642
862.0000,0.00955072
861.5000,0.00970125
861.0000,0.00954298
860.5000,0.00971524
860.0000,0.00972184
859.5000,0.00998688
859.0000,0.00985072
858.5000,0.00992218
858.0000,0.00970449
857.5000,0.00980807
857.0000,0.00968455
856.5000,0.00992092
856.0000,0.0100053
855.5000,0.0101487
855.0000,0.0101502
854.5000,0.00999718
854.0000,0.0101831
853.5000,0.0101108
853.0000,0.0101122
852.5000,0.00997527
852.0000,0.0100925
851.5000,0.00994698
851.0000,0.0102509
850.5000,0.0101796
850.0000,0.00963178
849.5000,0.00964704
849.0000,0.00968363
848.5000,0.00971565
848.0000,0.00968571
847.5000,0.00971897
847.0000,0.00971927
846.5000,0.00975728
846.0000,0.00971279
845.5000,0.00973044
845.0000,0.00981347
844.5000,0.0098149
844.0000,0.00982036
843.5000,0.00980973
843.0000,0.00982297
842.5000,0.0098456
842.0000,0.00990946
841.5000,0.00995929
841.0000,0.00998608
840.5000,0.0100414
840.0000,0.0101231
839.5000,0.010128
839.0000,0.0101046
838.5000,0.0101024
838.0000,0.0101617
837.5000,0.0102199
837.0000,0.0102606
836.5000,0.0102729
836.0000,0.0103261
835.5000,0.010332
835.0000,0.0103307
834.5000,0.010407
834.0000,0.0104375
833.5000,0.0104561
833.0000,0.0104742
832.5000,0.0105374
832.0000,0.0105933
831.5000,0.0106818
831.0000,0.0107483
830.5000,0.0107806
830.0000,0.0107925
829.5000,0.0108396
829.0000,0.0108863
828.5000,0.0109416
828.0000,0.010975
827.5000,0.0110256
827.0000,0.0110301
826.5000,0.0111343
826.0000,0.0111432
825.5000,0.0111803
825.0000,0.0111959
824.5000,0.0112468
824.0000,0.0112794
823.5000,0.0113146
823.0000,0.011371
822.5000,0.0114163
822.0000,0.0114169
821.5000,0.0114306
821.0000,0.0114556
820.5000,0.011491
820.0000,0.0115385
819.5000,0.0115946
819.0000,0.011648
818.5000,0.0116349
818.0000,0.0117278
817.5000,0.011775
817.0000,0.0118651
816.5000,0.0118971
816.0000,0.0118977
815.5000,0.0119137
815.0000,0.0119078
814.5000,0.0119613
814.0000,0.0119993
813.5000,0.0119909
813.0000,0.0119839
812.5000,0.0120099
812.0000,0.0120788
811.5000,0.0121042
811.0000,0.0121433
810.5000,0.0121258
810.0000,0.0121182
809.5000,0.0121696
809.0000,0.0121745
808.5000,0.0122137
808.0000,0.0122211
807.5000,0.0122624
807.0000,0.0122931
806.5000,0.0123604
806.0000,0.0124072
805.5000,0.0124458
805.0000,0.0125232
804.5000,0.0125877
804.0000,0.0125728
803.5000,0.0126348
803.0000,0.0126524
802.5000,0.0127052
802.0000,0.0127074
801.5000,0.0127416
801.0000,0.0127533
800.5000,0.0127651
800.0000,0.0128172
799.5000,0.0128577
799.0000,0.0129418
798.5000,0.0129881
798.0000,0.0130566
797.5000,0.0130912
797.0000,0.0131094
796.5000,0.013142
796.0000,0.0131512
795.5000,0.0132097
795.0000,0.0132599
794.5000,0.0132908
794.0000,0.0133459
793.5000,0.0133737
793.0000,0.013425
792.5000,0.0134495
792.0000,0.0134704
791.5000,0.0135116
791.0000,0.0135518
790.5000,0.0135726
790.0000,0.0136149
789.5000,0.0136676
789.0000,0.0136929
788.5000,0.013702
788.0000,0.0137623
787.5000,0.0137802
787.0000,0.0138102
786.5000,0.0138617
786.0000,0.0138789
785.5000,0.0139483
785.0000,0.0139413
784.5000,0.0139818
784.0000,0.0140588
783.5000,0.0140896
783.0000,0.014113
782.5000,0.0141259
782.0000,0.0141374
781.5000,0.0141887
781.0000,0.0142451
780.5000,0.0143087
780.0000,0.0143731
779.5000,0.0144309
779.0000,0.0144628
778.5000,0.0145294
778.0000,0.0145653
777.5000,0.0146068
777.0000,0.0146614
776.5000,0.0147017
776.0000,0.0147765
775.5000,0.0148201
775.0000,0.0148635
774.5000,0.0149098
774.0000,0.0149591
773.5000,0.0150065
773.0000,0.0150606
772.5000,0.0151049
772.0000,0.0151625
771.5000,0.0151997
771.0000,0.0152637
770.5000,0.0152982
770.0000,0.0153419
769.5000,0.0153576
769.0000,0.0154471
768.5000,0.0155134
768.0000,0.0155229
767.5000,0.015556
767.0000,0.0156019
766.5000,0.0156393
766.0000,0.0157244
765.5000,0.0157638
765.0000,0.015827
764.5000,0.0158578
764.0000,0.0158936
763.5000,0.0159019
763.0000,0.0159465
762.5000,0.0160096
762.0000,0.0160621
761.5000,0.0160986
761.0000,0.0161592
760.5000,0.0161872
760.0000,0.0162372
759.5000,0.0163028
759.0000,0.016369
758.5000,0.0164301
758.0000,0.0164796
757.5000,0.0165351
757.0000,0.0165873
756.5000,0.0166289
756.0000,0.0166738
755.5000,0.0167393
755.0000,0.0167905
754.5000,0.016859
754.0000,0.0169337
753.5000,0.0170025
753.0000,0.0170653
752.5000,0.0171162
752.0000,0.0171899
751.5000,0.0172607
751.0000,0.0173324
750.5000,0.0173894
750.0000,0.0174478
749.5000,0.0175157
749.0000,0.0175613
748.5000,0.0176408
748.0000,0.0177343
747.5000,0.0178163
747.0000,0.0178811
746.5000,0.0179412
746.0000,0.0179956
745.5000,0.0180825
745.0000,0.0181372
744.5000,0.0182586
744.0000,0.0183278
743.5000,0.0183626
743.0000,0.018422
742.5000,0.018495
742.0000,0.0185551
741.5000,0.0186251
741.0000,0.0186824
740.5000,0.0187761
740.0000,0.0189106
739.5000,0.0189467
739.0000,0.0190142
738.5000,0.0190724
738.0000,0.0191422
737.5000,0.0192005
737.0000,0.0193052
736.5000,0.0193704
736.0000,0.0194645
735.5000,0.019525
