TITLE,2_20-02
DATA TYPE,ULTRAVIOLET SPECTRUM
ORIGIN,JASCO
OWNER,
DATE,24/02/20
TIME,18:11:07
SPECTROMETER/DATA SYSTEM,
LOCALE,1040
RESOLUTION,
DELTAX,-0.5
XUNITS,NANOMETERS
YUNITS,ABSORBANCE
FIRSTX, 1200.0000
LASTX,  200.0000
NPOINTS,    2001
FIRSTY,     0.00134
MAXY,     0.08012
MINY,     0.00134
XYDATA
1200.0000,0.00134357
1199.5000,0.00135204
1199.0000,0.00135502
1198.5000,0.00134654
1198.0000,0.00136977
1197.5000,0.00134916
1197.0000,0.00138312
1196.5000,0.0013743
1196.0000,0.00137743
1195.5000,0.00135928
1195.0000,0.00139586
1194.5000,0.00140303
1194.0000,0.00142307
1193.5000,0.001427
1193.0000,0.00144949
1192.5000,0.00143693
1192.0000,0.00142097
1191.5000,0.00139563
1191.0000,0.00138033
1190.5000,0.00135667
1190.0000,0.00138016
1189.5000,0.00138079
1189.0000,0.00143024
1188.5000,0.00143175
1188.0000,0.00143482
1187.5000,0.00143764
1187.0000,0.001465
1186.5000,0.00145839
1186.0000,0.00143651
1185.5000,0.00141818
1185.0000,0.00144911
1184.5000,0.00144671
1184.0000,0.00144222
1183.5000,0.0014395
1183.0000,0.0014536
1182.5000,0.00145604
1182.0000,0.00145576
1181.5000,0.00146592
1181.0000,0.00147742
1180.5000,0.00148414
1180.0000,0.00149348
1179.5000,0.00151022
1179.0000,0.00151194
1178.5000,0.00150664
1178.0000,0.00153962
1177.5000,0.00154294
1177.0000,0.0015566
1176.5000,0.00157202
1176.0000,0.00162431
1175.5000,0.00165747
1175.0000,0.00169091
1174.5000,0.00171851
1174.0000,0.00175406
1173.5000,0.00176956
1173.0000,0.0017673
1172.5000,0.00177041
1172.0000,0.00177158
1171.5000,0.00179148
1171.0000,0.00180164
1170.5000,0.00182704
1170.0000,0.00185831
1169.5000,0.00187546
1169.0000,0.00185891
1168.5000,0.00186648
1168.0000,0.00189798
1167.5000,0.0019043
1167.0000,0.00193431
1166.5000,0.00190904
1166.0000,0.00190032
1165.5000,0.00191203
1165.0000,0.00189538
1164.5000,0.00188981
1164.0000,0.00189772
1163.5000,0.00190554
1163.0000,0.00190936
1162.5000,0.00191126
1162.0000,0.00188712
1161.5000,0.00186298
1161.0000,0.00187942
1160.5000,0.00190034
1160.0000,0.00187949
1159.5000,0.00187833
1159.0000,0.00187095
1158.5000,0.00186443
1158.0000,0.0018466
1157.5000,0.00184338
1157.0000,0.00182848
1156.5000,0.00182165
1156.0000,0.00181291
1155.5000,0.00179181
1155.0000,0.00177826
1154.5000,0.00175452
1154.0000,0.00174413
1153.5000,0.00171648
1153.0000,0.00173033
1152.5000,0.00172728
1152.0000,0.00170991
1151.5000,0.0017058
1151.0000,0.00168343
1150.5000,0.00170122
1150.0000,0.00173522
1149.5000,0.00172474
1149.0000,0.00173637
1148.5000,0.00173742
1148.0000,0.00174216
1147.5000,0.00174237
1147.0000,0.00172165
1146.5000,0.00169824
1146.0000,0.00169483
1145.5000,0.00171593
1145.0000,0.00168959
1144.5000,0.00167199
1144.0000,0.00166473
1143.5000,0.00165258
1143.0000,0.00165414
1142.5000,0.00164849
1142.0000,0.00164699
1141.5000,0.00162648
1141.0000,0.00165271
1140.5000,0.0016404
1140.0000,0.00164888
1139.5000,0.00165378
1139.0000,0.00165661
1138.5000,0.00166914
1138.0000,0.00166274
1137.5000,0.00168687
1137.0000,0.00166048
1136.5000,0.00166581
1136.0000,0.00166679
1135.5000,0.0016709
1135.0000,0.00167444
1134.5000,0.00166421
1134.0000,0.00163252
1133.5000,0.0016309
1133.0000,0.00163023
1132.5000,0.00162939
1132.0000,0.00161849
1131.5000,0.00160712
1131.0000,0.00161266
1130.5000,0.00162081
1130.0000,0.00161389
1129.5000,0.00161104
1129.0000,0.00160114
1128.5000,0.00160305
1128.0000,0.00159922
1127.5000,0.00157848
1127.0000,0.00155434
1126.5000,0.00154478
1126.0000,0.00155381
1125.5000,0.00154595
1125.0000,0.00152248
1124.5000,0.00152754
1124.0000,0.00149317
1123.5000,0.00149253
1123.0000,0.00148096
1122.5000,0.00146935
1122.0000,0.00147848
1121.5000,0.00147009
1121.0000,0.00147065
1120.5000,0.00146776
1120.0000,0.00147324
1119.5000,0.00146859
1119.0000,0.00145265
1118.5000,0.00146673
1118.0000,0.00147252
1117.5000,0.00147725
1117.0000,0.00146864
1116.5000,0.00145118
1116.0000,0.00144352
1115.5000,0.00145634
1115.0000,0.00145214
1114.5000,0.0014508
1114.0000,0.00146054
1113.5000,0.00146444
1113.0000,0.00147248
1112.5000,0.00146592
1112.0000,0.00145936
1111.5000,0.00148738
1111.0000,0.00149785
1110.5000,0.00152724
1110.0000,0.00151326
1109.5000,0.00152437
1109.0000,0.00152034
1108.5000,0.00153113
1108.0000,0.0015623
1107.5000,0.00156341
1107.0000,0.00157863
1106.5000,0.00159274
1106.0000,0.00161092
1105.5000,0.00162135
1105.0000,0.00162852
1104.5000,0.00163361
1104.0000,0.0016303
1103.5000,0.00162853
1103.0000,0.0016483
1102.5000,0.0016369
1102.0000,0.00164471
1101.5000,0.00164473
1101.0000,0.00165782
1100.5000,0.00166854
1100.0000,0.00165749
1099.5000,0.00165508
1099.0000,0.00167205
1098.5000,0.00167036
1098.0000,0.00166548
1097.5000,0.00165016
1097.0000,0.00164851
1096.5000,0.00164617
1096.0000,0.00164595
1095.5000,0.00165545
1095.0000,0.00165579
1094.5000,0.0016306
1094.0000,0.00165783
1093.5000,0.00164024
1093.0000,0.00165246
1092.5000,0.00163042
1092.0000,0.00163539
1091.5000,0.00162384
1091.0000,0.00161759
1090.5000,0.00160071
1090.0000,0.00158148
1089.5000,0.00156564
1089.0000,0.0015707
1088.5000,0.00158022
1088.0000,0.00158178
1087.5000,0.00158162
1087.0000,0.00157113
1086.5000,0.00158039
1086.0000,0.00156987
1085.5000,0.00159478
1085.0000,0.00157002
1084.5000,0.00157636
1084.0000,0.00158798
1083.5000,0.00158588
1083.0000,0.00156637
1082.5000,0.00157212
1082.0000,0.00156994
1081.5000,0.00156485
1081.0000,0.00157423
1080.5000,0.00158563
1080.0000,0.0015965
1079.5000,0.00157646
1079.0000,0.00158363
1078.5000,0.0015806
1078.0000,0.00155956
1077.5000,0.0015857
1077.0000,0.00157153
1076.5000,0.00158483
1076.0000,0.00158517
1075.5000,0.00158821
1075.0000,0.00157491
1074.5000,0.00157707
1074.0000,0.00158777
1073.5000,0.00158011
1073.0000,0.00157675
1072.5000,0.00156096
1072.0000,0.0015518
1071.5000,0.00154582
1071.0000,0.00155963
1070.5000,0.00154959
1070.0000,0.00156373
1069.5000,0.00155314
1069.0000,0.00158638
1068.5000,0.0015858
1068.0000,0.00160482
1067.5000,0.00159803
1067.0000,0.00161159
1066.5000,0.00160801
1066.0000,0.00161535
1065.5000,0.00161678
1065.0000,0.00161329
1064.5000,0.0015853
1064.0000,0.00159276
1063.5000,0.0015873
1063.0000,0.00160436
1062.5000,0.00159597
1062.0000,0.00161301
1061.5000,0.00157941
1061.0000,0.00161813
1060.5000,0.00161251
1060.0000,0.00163567
1059.5000,0.00161968
1059.0000,0.001654
1058.5000,0.00163449
1058.0000,0.00165103
1057.5000,0.00165615
1057.0000,0.0016713
1056.5000,0.00167201
1056.0000,0.00168811
1055.5000,0.00166748
1055.0000,0.00166265
1054.5000,0.00163758
1054.0000,0.00163914
1053.5000,0.00158425
1053.0000,0.00160077
1052.5000,0.00158677
1052.0000,0.00160178
1051.5000,0.00158815
1051.0000,0.00159959
1050.5000,0.00159009
1050.0000,0.00158585
1049.5000,0.00157589
1049.0000,0.00157365
1048.5000,0.00155957
1048.0000,0.00155563
1047.5000,0.00153648
1047.0000,0.00152466
1046.5000,0.00151828
1046.0000,0.00150223
1045.5000,0.001516
1045.0000,0.00150234
1044.5000,0.00147458
1044.0000,0.00146339
1043.5000,0.00147178
1043.0000,0.00144455
1042.5000,0.00146211
1042.0000,0.00144877
1041.5000,0.00141901
1041.0000,0.00142964
1040.5000,0.00140322
1040.0000,0.00141967
1039.5000,0.00142321
1039.0000,0.00142719
1038.5000,0.00144259
1038.0000,0.00143704
1037.5000,0.00147308
1037.0000,0.00144294
1036.5000,0.00143612
1036.0000,0.0014057
1035.5000,0.00140516
1035.0000,0.00138646
1034.5000,0.0013833
1034.0000,0.0013916
1033.5000,0.00140795
1033.0000,0.00141319
1032.5000,0.00143948
1032.0000,0.00145295
1031.5000,0.00146857
1031.0000,0.00145876
1030.5000,0.00147136
1030.0000,0.00150567
1029.5000,0.00149462
1029.0000,0.0014975
1028.5000,0.00152467
1028.0000,0.00152102
1027.5000,0.00151319
1027.0000,0.00153974
1026.5000,0.00152439
1026.0000,0.00153498
1025.5000,0.00156143
1025.0000,0.0015557
1024.5000,0.00156401
1024.0000,0.00154592
1023.5000,0.00156085
1023.0000,0.00156251
1022.5000,0.00156192
1022.0000,0.00154026
1021.5000,0.00151062
1021.0000,0.00154201
1020.5000,0.00153027
1020.0000,0.00156793
1019.5000,0.00155306
1019.0000,0.00158722
1018.5000,0.00157281
1018.0000,0.00161733
1017.5000,0.00157277
1017.0000,0.00162911
1016.5000,0.00158711
1016.0000,0.00162672
1015.5000,0.00160208
1015.0000,0.0016412
1014.5000,0.00160863
1014.0000,0.00161187
1013.5000,0.00160903
1013.0000,0.00162247
1012.5000,0.00158195
1012.0000,0.00161008
1011.5000,0.00161479
1011.0000,0.00163279
1010.5000,0.00161909
1010.0000,0.00165173
1009.5000,0.00164269
1009.0000,0.00167291
1008.5000,0.00165308
1008.0000,0.00168743
1007.5000,0.0016618
1007.0000,0.00173458
1006.5000,0.0017215
1006.0000,0.0018122
1005.5000,0.00182923
1005.0000,0.00183585
1004.5000,0.00184183
1004.0000,0.0018608
1003.5000,0.00185852
1003.0000,0.00185889
1002.5000,0.00187084
1002.0000,0.00183471
1001.5000,0.00186772
1001.0000,0.00187107
1000.5000,0.00190033
1000.0000,0.00190115
999.5000,0.00193194
999.0000,0.00193551
998.5000,0.00195747
998.0000,0.00197958
997.5000,0.00199857
997.0000,0.00199486
996.5000,0.00201839
996.0000,0.00201893
995.5000,0.00200434
995.0000,0.00200948
994.5000,0.00203311
994.0000,0.00200003
993.5000,0.00200517
993.0000,0.00197192
992.5000,0.00196622
992.0000,0.00196818
991.5000,0.00198901
991.0000,0.00191642
990.5000,0.0019218
990.0000,0.00191563
989.5000,0.00191598
989.0000,0.00189701
988.5000,0.00190703
988.0000,0.00188137
987.5000,0.00189628
987.0000,0.00192984
986.5000,0.00195484
986.0000,0.00198443
985.5000,0.00199393
985.0000,0.00194535
984.5000,0.00194118
984.0000,0.00192442
983.5000,0.00190964
983.0000,0.00190123
982.5000,0.00189542
982.0000,0.00188677
981.5000,0.00187125
981.0000,0.00188136
980.5000,0.00188713
980.0000,0.0018908
979.5000,0.00189788
979.0000,0.0019075
978.5000,0.0018685
978.0000,0.00191881
977.5000,0.00191345
977.0000,0.00194728
976.5000,0.00198453
976.0000,0.00199672
975.5000,0.00198761
975.0000,0.00205118
974.5000,0.00201361
974.0000,0.00199098
973.5000,0.00196268
973.0000,0.00199633
972.5000,0.0019759
972.0000,0.0020132
971.5000,0.00202214
971.0000,0.00202463
970.5000,0.00197508
970.0000,0.00197152
969.5000,0.00194334
969.0000,0.00202233
968.5000,0.00201192
968.0000,0.0020654
967.5000,0.00202711
967.0000,0.00205311
966.5000,0.00205237
966.0000,0.00204829
965.5000,0.0020292
965.0000,0.00205428
964.5000,0.00201842
964.0000,0.00203986
963.5000,0.00203893
963.0000,0.00206721
962.5000,0.00206618
962.0000,0.00206137
961.5000,0.00204513
961.0000,0.00207707
960.5000,0.00205359
960.0000,0.00206622
959.5000,0.00203505
959.0000,0.00205306
958.5000,0.00207526
958.0000,0.00207746
957.5000,0.00207702
957.0000,0.00212182
956.5000,0.0021077
956.0000,0.002119
955.5000,0.0020542
955.0000,0.00206139
954.5000,0.00203748
954.0000,0.00206724
953.5000,0.00202225
953.0000,0.00199834
952.5000,0.00199816
952.0000,0.00199124
951.5000,0.00199228
951.0000,0.00202631
950.5000,0.00202095
950.0000,0.0020518
949.5000,0.00205745
949.0000,0.00208454
948.5000,0.00209646
948.0000,0.00209862
947.5000,0.00205513
947.0000,0.00204995
946.5000,0.00209635
946.0000,0.00208268
945.5000,0.00207119
945.0000,0.00205914
944.5000,0.00201635
944.0000,0.00204236
943.5000,0.00204543
943.0000,0.00201284
942.5000,0.00201091
942.0000,0.00204008
941.5000,0.00205179
941.0000,0.00200581
940.5000,0.00202248
940.0000,0.00200946
939.5000,0.002059
939.0000,0.00205855
938.5000,0.00209147
938.0000,0.00206804
937.5000,0.00213879
937.0000,0.00212846
936.5000,0.00212209
936.0000,0.00207181
935.5000,0.00208795
935.0000,0.00206427
934.5000,0.00204881
934.0000,0.00201444
933.5000,0.0020089
933.0000,0.00200677
932.5000,0.00203208
932.0000,0.00204027
931.5000,0.00205366
931.0000,0.00203655
930.5000,0.00200005
930.0000,0.00203054
929.5000,0.0020023
929.0000,0.00202075
928.5000,0.00202524
928.0000,0.00201373
927.5000,0.00200278
927.0000,0.00200532
926.5000,0.00196672
926.0000,0.00200311
925.5000,0.00196637
925.0000,0.00199319
924.5000,0.00197178
924.0000,0.00203158
923.5000,0.00199029
923.0000,0.00200507
922.5000,0.00198823
922.0000,0.00204307
921.5000,0.00196853
921.0000,0.00199981
920.5000,0.00198148
920.0000,0.00208067
919.5000,0.00204008
919.0000,0.00206255
918.5000,0.00202875
918.0000,0.00209257
917.5000,0.0020898
917.0000,0.00210824
916.5000,0.00203611
916.0000,0.00208173
915.5000,0.00201851
915.0000,0.0020637
914.5000,0.00198733
914.0000,0.00205842
913.5000,0.0020178
913.0000,0.00201029
912.5000,0.00194924
912.0000,0.00200908
911.5000,0.00202474
911.0000,0.00210024
910.5000,0.00209583
910.0000,0.00214013
909.5000,0.00209324
909.0000,0.00214923
908.5000,0.00207981
908.0000,0.00207193
907.5000,0.00200528
907.0000,0.00207288
906.5000,0.00200149
906.0000,0.00203557
905.5000,0.00203901
905.0000,0.002124
904.5000,0.00210221
904.0000,0.00211904
903.5000,0.00209523
903.0000,0.00214852
902.5000,0.00215647
902.0000,0.00219795
901.5000,0.00216097
901.0000,0.00219911
900.5000,0.00218243
900.0000,0.0021962
899.5000,0.00227368
899.0000,0.00229915
898.5000,0.0022762
898.0000,0.00220141
897.5000,0.00230255
897.0000,0.00234486
896.5000,0.00240927
896.0000,0.00243827
895.5000,0.00237761
895.0000,0.00231306
894.5000,0.00237155
894.0000,0.00232659
893.5000,0.00247039
893.0000,0.00249604
892.5000,0.0024966
892.0000,0.00245598
891.5000,0.00259872
891.0000,0.00252384
890.5000,0.00254706
890.0000,0.00253997
889.5000,0.00256907
889.0000,0.00244558
888.5000,0.00254754
888.0000,0.00251673
887.5000,0.00257079
887.0000,0.00257826
886.5000,0.00265933
886.0000,0.00260032
885.5000,0.00263098
885.0000,0.00254158
884.5000,0.0025836
884.0000,0.00256392
883.5000,0.00256654
883.0000,0.00257692
882.5000,0.00269029
882.0000,0.00278369
881.5000,0.00277441
881.0000,0.00274695
880.5000,0.00276043
880.0000,0.0027031
879.5000,0.00267069
879.0000,0.00275483
878.5000,0.00268988
878.0000,0.00265255
877.5000,0.00252342
877.0000,0.00251888
876.5000,0.00259306
876.0000,0.00260865
875.5000,0.00251317
875.0000,0.00258057
874.5000,0.0025462
874.0000,0.002505
873.5000,0.00249532
873.0000,0.00258036
872.5000,0.00249489
872.0000,0.00255787
871.5000,0.00247388
871.0000,0.00249129
870.5000,0.00227705
870.0000,0.00231805
869.5000,0.00219867
869.0000,0.0022889
868.5000,0.00221082
868.0000,0.00224195
867.5000,0.00214907
867.0000,0.00219928
866.5000,0.00215949
866.0000,0.00222723
865.5000,0.00208856
865.0000,0.00213922
864.5000,0.00204222
864.0000,0.00212312
863.5000,0.00213379
863.0000,0.00218234
862.5000,0.00210373
862.0000,0.00227122
861.5000,0.00224395
861.0000,0.00237803
860.5000,0.0022814
860.0000,0.00246903
859.5000,0.00239079
859.0000,0.00241871
858.5000,0.00238063
858.0000,0.00250492
857.5000,0.0024111
857.0000,0.00245072
856.5000,0.00231406
856.0000,0.00231302
855.5000,0.00227217
855.0000,0.00233075
854.5000,0.00246598
854.0000,0.00248213
853.5000,0.00250646
853.0000,0.00256155
852.5000,0.00261405
852.0000,0.00257937
851.5000,0.0025122
851.0000,0.0024825
850.5000,0.00248558
850.0000,0.00358259
849.5000,0.00352094
849.0000,0.00351731
848.5000,0.00353353
848.0000,0.00354677
847.5000,0.00352545
847.0000,0.00347591
846.5000,0.00349255
846.0000,0.00347425
845.5000,0.00349831
845.0000,0.00348055
844.5000,0.00348916
844.0000,0.0034464
843.5000,0.00348471
843.0000,0.00350876
842.5000,0.00349088
842.0000,0.00349284
841.5000,0.00355176
841.0000,0.00364632
840.5000,0.00361722
840.0000,0.00363397
839.5000,0.00358687
839.0000,0.00360124
838.5000,0.00355426
838.0000,0.00354434
837.5000,0.00354606
837.0000,0.00358526
836.5000,0.00359756
836.0000,0.00358063
835.5000,0.00359459
835.0000,0.00355978
834.5000,0.00357932
834.0000,0.00359607
833.5000,0.00362696
833.0000,0.00366877
832.5000,0.00368131
832.0000,0.00364211
831.5000,0.00367697
831.0000,0.00367287
830.5000,0.00365179
830.0000,0.00364246
829.5000,0.00361734
829.0000,0.00359886
828.5000,0.00359049
828.0000,0.00358859
827.5000,0.00362773
827.0000,0.00359393
826.5000,0.00361175
826.0000,0.00366622
825.5000,0.00369117
825.0000,0.00366866
824.5000,0.00367287
824.0000,0.00368333
823.5000,0.00370459
823.0000,0.0037031
822.5000,0.00372645
822.0000,0.00371653
821.5000,0.00372579
821.0000,0.00374183
820.5000,0.00375579
820.0000,0.00376737
819.5000,0.00375781
819.0000,0.00376696
818.5000,0.00378068
818.0000,0.00374646
817.5000,0.00374991
817.0000,0.00371481
816.5000,0.00372484
816.0000,0.00374955
815.5000,0.00375003
815.0000,0.00382879
814.5000,0.00384833
814.0000,0.00384292
813.5000,0.00383473
813.0000,0.00384138
812.5000,0.00381821
812.0000,0.00385243
811.5000,0.00378917
811.0000,0.00379903
810.5000,0.00384358
810.0000,0.00380925
809.5000,0.00379517
809.0000,0.00377272
808.5000,0.00379137
808.0000,0.00382594
807.5000,0.00384619
807.0000,0.00383413
806.5000,0.00384744
806.0000,0.00387007
805.5000,0.00381352
805.0000,0.0038039
804.5000,0.00380402
804.0000,0.00384215
803.5000,0.00384738
803.0000,0.00386662
802.5000,0.00385866
802.0000,0.0038649
801.5000,0.0038624
801.0000,0.00389846
800.5000,0.00389293
800.0000,0.00387743
799.5000,0.00384857
799.0000,0.00381744
798.5000,0.00381833
798.0000,0.00383479
797.5000,0.0038586
797.0000,0.00389388
796.5000,0.00392756
796.0000,0.00392447
795.5000,0.00395292
795.0000,0.00395447
794.5000,0.00391467
794.0000,0.00394354
793.5000,0.00396552
793.0000,0.00397526
792.5000,0.00396011
792.0000,0.00397668
791.5000,0.00397846
791.0000,0.00400775
790.5000,0.00400935
790.0000,0.00402349
789.5000,0.00409221
789.0000,0.00410177
788.5000,0.00409066
788.0000,0.0040947
787.5000,0.0041086
787.0000,0.00414228
786.5000,0.0041519
786.0000,0.00416728
785.5000,0.00419176
785.0000,0.00420435
784.5000,0.00420476
784.0000,0.00422092
783.5000,0.00424224
783.0000,0.00425893
782.5000,0.00426778
782.0000,0.00427681
781.5000,0.00430015
781.0000,0.0043074
780.5000,0.00433377
780.0000,0.00435563
779.5000,0.00436971
779.0000,0.0044019
778.5000,0.00440766
778.0000,0.00441675
777.5000,0.00440618
777.0000,0.00443094
776.5000,0.00442904
776.0000,0.00443243
775.5000,0.00442429
775.0000,0.00442993
774.5000,0.00443985
774.0000,0.00443486
773.5000,0.00442732
773.0000,0.00445827
772.5000,0.00447745
772.0000,0.00448404
771.5000,0.00448565
771.0000,0.00446563
770.5000,0.00448493
770.0000,0.00446878
769.5000,0.00448743
769.0000,0.00447816
768.5000,0.0044945
768.0000,0.00452562
767.5000,0.00456156
767.0000,0.00459048
766.5000,0.0046083
766.0000,0.00463141
765.5000,0.00464786
765.0000,0.00463105
764.5000,0.00465273
764.0000,0.00466093
763.5000,0.00466894
763.0000,0.00466437
762.5000,0.00467037
762.0000,0.00468106
761.5000,0.00473772
761.0000,0.00476059
760.5000,0.00477995
760.0000,0.00479807
759.5000,0.00478637
759.0000,0.00479914
758.5000,0.00480478
758.0000,0.00482337
757.5000,0.0048384
757.0000,0.00481714
756.5000,0.00486008
756.0000,0.00488437
755.5000,0.0049171
755.0000,0.00493783
754.5000,0.00494805
754.0000,0.00497792
753.5000,0.00495909
753.0000,0.00498446
752.5000,0.00500453
752.0000,0.0050154
751.5000,0.00500334
751.0000,0.00499241
750.5000,0.00499598
750.0000,0.00500697
749.5000,0.00499277
749.0000,0.00501647
748.5000,0.00499206
748.0000,0.00501023
747.5000,0.005041
747.0000,0.00505312
746.5000,0.00508175
746.0000,0.00508917
745.5000,0.00506458
745.0000,0.00506636
744.5000,0.00508941
744.0000,0.00510028
743.5000,0.00512813
743.0000,0.0051456
742.5000,0.00516627
742.0000,0.00518052
741.5000,0.00520392
741.0000,0.00523392
740.5000,0.00522893
740.0000,0.00525156
739.5000,0.0052597
