TITLE,452 Au Runpeng PRE centrifuga 1000RCF_10-01-25
DATA TYPE,ULTRAVIOLET SPECTRUM
ORIGIN,JASCO
OWNER,
DATE,25/01/10
TIME,10:22:36
SPECTROMETER/DATA SYSTEM,
LOCALE,1040
RESOLUTION,
DELTAX,-0.5
XUNITS,NANOMETERS
YUNITS,ABSORBANCE
FIRSTX, 1200.0000
LASTX,  200.0000
NPOINTS,    2001
FIRSTY,     0.00049
MAXY,     0.16272
MINY,     0.00040
XYDATA
1200.0000,0.000487143
1199.5000,0.00045544
1199.0000,0.000461234
1198.5000,0.000450839
1198.0000,0.000437788
1197.5000,0.000460138
1197.0000,0.000482999
1196.5000,0.000489781
1196.0000,0.000496162
1195.5000,0.000497849
1195.0000,0.0004872
1194.5000,0.000449183
1194.0000,0.000441847
1193.5000,0.000420108
1193.0000,0.000431272
1192.5000,0.000429471
1192.0000,0.000400334
1191.5000,0.000411888
1191.0000,0.000437408
1190.5000,0.000416102
1190.0000,0.000417917
1189.5000,0.00043534
1189.0000,0.000422357
1188.5000,0.000405758
1188.0000,0.00042044
1187.5000,0.000421711
1187.0000,0.000459935
1186.5000,0.000450633
1186.0000,0.000454025
1185.5000,0.000442451
1185.0000,0.000442591
1184.5000,0.000466945
1184.0000,0.000460521
1183.5000,0.000459732
1183.0000,0.0004509
1182.5000,0.000434122
1182.0000,0.000442714
1181.5000,0.000433519
1181.0000,0.000462407
1180.5000,0.00048185
1180.0000,0.000489897
1179.5000,0.000518251
1179.0000,0.000528642
1178.5000,0.000573744
1178.0000,0.000583864
1177.5000,0.000601536
1177.0000,0.000606261
1176.5000,0.000606387
1176.0000,0.000617085
1175.5000,0.000623819
1175.0000,0.000589433
1174.5000,0.000573304
1174.0000,0.000589875
1173.5000,0.000630231
1173.0000,0.000646392
1172.5000,0.000658691
1172.0000,0.000656563
1171.5000,0.000665882
1171.0000,0.000675813
1170.5000,0.00066101
1170.0000,0.000673056
1169.5000,0.000678958
1169.0000,0.000697991
1168.5000,0.000712895
1168.0000,0.000694215
1167.5000,0.000692701
1167.0000,0.000716628
1166.5000,0.000754378
1166.0000,0.000767354
1165.5000,0.00074124
1165.0000,0.000744287
1164.5000,0.000736226
1164.0000,0.000748939
1163.5000,0.00072334
1163.0000,0.000731838
1162.5000,0.000742202
1162.0000,0.000754973
1161.5000,0.000743291
1161.0000,0.000766706
1160.5000,0.000790639
1160.0000,0.000779668
1159.5000,0.000755539
1159.0000,0.000801606
1158.5000,0.000815502
1158.0000,0.000831762
1157.5000,0.000775809
1157.0000,0.00078609
1156.5000,0.000794095
1156.0000,0.000825562
1155.5000,0.000838287
1155.0000,0.000823224
1154.5000,0.000842025
1154.0000,0.000838581
1153.5000,0.000838337
1153.0000,0.00084732
1152.5000,0.000821596
1152.0000,0.000812307
1151.5000,0.000813162
1151.0000,0.000811857
1150.5000,0.000815355
1150.0000,0.000807222
1149.5000,0.000857765
1149.0000,0.00083117
1148.5000,0.000827673
1148.0000,0.000830086
1147.5000,0.000863997
1147.0000,0.000835957
1146.5000,0.000809632
1146.0000,0.000802494
1145.5000,0.000827001
1145.0000,0.000788286
1144.5000,0.000760052
1144.0000,0.0007541
1143.5000,0.000770295
1143.0000,0.000757128
1142.5000,0.000765293
1142.0000,0.00071827
1141.5000,0.000758818
1141.0000,0.000769742
1140.5000,0.000763084
1140.0000,0.000756157
1139.5000,0.000717995
1139.0000,0.000707815
1138.5000,0.000700444
1138.0000,0.000685205
1137.5000,0.00068372
1137.0000,0.000659405
1136.5000,0.000690739
1136.0000,0.000743347
1135.5000,0.000756624
1135.0000,0.000745935
1134.5000,0.000724055
1134.0000,0.000728758
1133.5000,0.000714072
1133.0000,0.000746056
1132.5000,0.000764325
1132.0000,0.000747509
1131.5000,0.000722373
1131.0000,0.00073453
1130.5000,0.000756276
1130.0000,0.000764014
1129.5000,0.000725911
1129.0000,0.000747066
1128.5000,0.000758355
1128.0000,0.000776117
1127.5000,0.000786941
1127.0000,0.000800751
1126.5000,0.000821778
1126.0000,0.000839148
1125.5000,0.000794793
1125.0000,0.000770277
1124.5000,0.000759488
1124.0000,0.000736523
1123.5000,0.00077613
1123.0000,0.000775127
1122.5000,0.000796557
1122.0000,0.00081139
1121.5000,0.000810739
1121.0000,0.000802199
1120.5000,0.000800131
1120.0000,0.00076677
1119.5000,0.000767006
1119.0000,0.000763407
1118.5000,0.000763827
1118.0000,0.000765248
1117.5000,0.000768783
1117.0000,0.000748547
1116.5000,0.000734095
1116.0000,0.000723731
1115.5000,0.000759173
1115.0000,0.000777937
1114.5000,0.000781674
1114.0000,0.000799848
1113.5000,0.000860193
1113.0000,0.000859193
1112.5000,0.00087391
1112.0000,0.000848267
1111.5000,0.000830145
1111.0000,0.000817829
1110.5000,0.000790585
1110.0000,0.000817159
1109.5000,0.000833675
1109.0000,0.000857684
1108.5000,0.000859719
1108.0000,0.000883346
1107.5000,0.000852194
1107.0000,0.000885561
1106.5000,0.000852004
1106.0000,0.000848633
1105.5000,0.000847654
1105.0000,0.000861216
1104.5000,0.000875812
1104.0000,0.00087832
1103.5000,0.000872439
1103.0000,0.000871869
1102.5000,0.000893441
1102.0000,0.000916584
1101.5000,0.00090874
1101.0000,0.000895787
1100.5000,0.000904587
1100.0000,0.00091357
1099.5000,0.00089123
1099.0000,0.000884823
1098.5000,0.000884606
1098.0000,0.000850924
1097.5000,0.000798937
1097.0000,0.000780738
1096.5000,0.000768447
1096.0000,0.00081729
1095.5000,0.000836007
1095.0000,0.000830233
1094.5000,0.000816094
1094.0000,0.000807492
1093.5000,0.000796535
1093.0000,0.000796593
1092.5000,0.000820726
1092.0000,0.000810282
1091.5000,0.000855169
1091.0000,0.000847437
1090.5000,0.000860306
1090.0000,0.000893878
1089.5000,0.000874949
1089.0000,0.000892175
1088.5000,0.000861152
1088.0000,0.000881491
1087.5000,0.000896788
1087.0000,0.000897523
1086.5000,0.000901797
1086.0000,0.000886245
1085.5000,0.000881861
1085.0000,0.000913337
1084.5000,0.000901869
1084.0000,0.000926444
1083.5000,0.000910404
1083.0000,0.000935596
1082.5000,0.000946201
1082.0000,0.000969712
1081.5000,0.000991868
1081.0000,0.0010143
1080.5000,0.000984643
1080.0000,0.000967258
1079.5000,0.000921287
1079.0000,0.000924438
1078.5000,0.000947866
1078.0000,0.000946664
1077.5000,0.000961108
1077.0000,0.000967503
1076.5000,0.000957086
1076.0000,0.000973797
1075.5000,0.000919724
1075.0000,0.000908291
1074.5000,0.000917291
1074.0000,0.000892321
1073.5000,0.000902844
1073.0000,0.000883447
1072.5000,0.000915552
1072.0000,0.000915358
1071.5000,0.000906811
1071.0000,0.000944773
1070.5000,0.000924352
1070.0000,0.00091394
1069.5000,0.000920256
1069.0000,0.000931414
1068.5000,0.000939359
1068.0000,0.000924071
1067.5000,0.00093373
1067.0000,0.000913118
1066.5000,0.000914013
1066.0000,0.000901727
1065.5000,0.00088668
1065.0000,0.000885607
1064.5000,0.000897611
1064.0000,0.00089677
1063.5000,0.000946867
1063.0000,0.000936588
1062.5000,0.000939608
1062.0000,0.00095386
1061.5000,0.000958915
1061.0000,0.000953389
1060.5000,0.000937668
1060.0000,0.000931316
1059.5000,0.000950021
1059.0000,0.000971004
1058.5000,0.000953131
1058.0000,0.000958723
1057.5000,0.000980312
1057.0000,0.000972796
1056.5000,0.000942145
1056.0000,0.000922369
1055.5000,0.000926467
1055.0000,0.000906807
1054.5000,0.00089446
1054.0000,0.000917253
1053.5000,0.000915699
1053.0000,0.000894183
1052.5000,0.000882083
1052.0000,0.000878322
1051.5000,0.000836967
1051.0000,0.000836338
1050.5000,0.000797215
1050.0000,0.000819384
1049.5000,0.000801892
1049.0000,0.000798183
1048.5000,0.000802275
1048.0000,0.000822767
1047.5000,0.000801895
1047.0000,0.000823831
1046.5000,0.000803321
1046.0000,0.000778697
1045.5000,0.000760329
1045.0000,0.000742387
1044.5000,0.000724379
1044.0000,0.000735134
1043.5000,0.000728285
1043.0000,0.000719752
1042.5000,0.000708029
1042.0000,0.000719931
1041.5000,0.000698106
1041.0000,0.000715792
1040.5000,0.000712494
1040.0000,0.00073705
1039.5000,0.000712555
1039.0000,0.000701627
1038.5000,0.00069506
1038.0000,0.000685682
1037.5000,0.000667701
1037.0000,0.000695642
1036.5000,0.000669886
1036.0000,0.000667728
1035.5000,0.000674993
1035.0000,0.000667512
1034.5000,0.000665491
1034.0000,0.000678909
1033.5000,0.000680246
1033.0000,0.000701937
1032.5000,0.000652622
1032.0000,0.000632199
1031.5000,0.000629075
1031.0000,0.000639246
1030.5000,0.000641791
1030.0000,0.000648173
1029.5000,0.000631656
1029.0000,0.000672011
1028.5000,0.000681827
1028.0000,0.00069402
1027.5000,0.00069504
1027.0000,0.000713542
1026.5000,0.000677788
1026.0000,0.000695368
1025.5000,0.00066883
1025.0000,0.000690447
1024.5000,0.000698179
1024.0000,0.000682025
1023.5000,0.000693457
1023.0000,0.000712215
1022.5000,0.000712266
1022.0000,0.000736648
1021.5000,0.000708136
1021.0000,0.000694116
1020.5000,0.000713487
1020.0000,0.000744065
1019.5000,0.000750567
1019.0000,0.000784205
1018.5000,0.000804309
1018.0000,0.000774795
1017.5000,0.00075933
1017.0000,0.000725944
1016.5000,0.000775694
1016.0000,0.000786996
1015.5000,0.000785943
1015.0000,0.000797678
1014.5000,0.000802384
1014.0000,0.000813741
1013.5000,0.000844275
1013.0000,0.000824123
1012.5000,0.000803602
1012.0000,0.000800062
1011.5000,0.000768217
1011.0000,0.000772587
1010.5000,0.000834588
1010.0000,0.000816048
1009.5000,0.000815362
1009.0000,0.000840987
1008.5000,0.000813954
1008.0000,0.000829569
1007.5000,0.000823857
1007.0000,0.000822154
1006.5000,0.000807154
1006.0000,0.000800687
1005.5000,0.000835975
1005.0000,0.000837454
1004.5000,0.00084106
1004.0000,0.000844428
1003.5000,0.000843246
1003.0000,0.000867017
1002.5000,0.000855062
1002.0000,0.000874815
1001.5000,0.000901557
1001.0000,0.000937632
1000.5000,0.00095025
1000.0000,0.00100678
999.5000,0.00100281
999.0000,0.00102708
998.5000,0.00101682
998.0000,0.00100521
997.5000,0.000983993
997.0000,0.00101522
996.5000,0.00103877
996.0000,0.00103126
995.5000,0.00104556
995.0000,0.00107397
994.5000,0.00106313
994.0000,0.0010505
993.5000,0.00105138
993.0000,0.00101442
992.5000,0.000992091
992.0000,0.00102983
991.5000,0.00102703
991.0000,0.00102835
990.5000,0.00107299
990.0000,0.00113246
989.5000,0.00108304
989.0000,0.00113751
988.5000,0.00112547
988.0000,0.00109354
987.5000,0.00108337
987.0000,0.00105275
986.5000,0.00105527
986.0000,0.00105049
985.5000,0.00104306
985.0000,0.00106051
984.5000,0.00103083
984.0000,0.000984469
983.5000,0.000955318
983.0000,0.000918107
982.5000,0.000938371
982.0000,0.000961211
981.5000,0.000920787
981.0000,0.000900515
980.5000,0.000858502
980.0000,0.000908587
979.5000,0.000879253
979.0000,0.000839379
978.5000,0.000802462
978.0000,0.000821731
977.5000,0.000867684
977.0000,0.00091935
976.5000,0.00100205
976.0000,0.00105265
975.5000,0.00104524
975.0000,0.0011263
974.5000,0.00110986
974.0000,0.00107784
973.5000,0.00111595
973.0000,0.00108598
972.5000,0.00106969
972.0000,0.00111475
971.5000,0.00112229
971.0000,0.00117857
970.5000,0.00119472
970.0000,0.00119841
969.5000,0.00115985
969.0000,0.001142
968.5000,0.0011276
968.0000,0.00114163
967.5000,0.00118908
967.0000,0.00120102
966.5000,0.00118897
966.0000,0.00122328
965.5000,0.00129366
965.0000,0.00134862
964.5000,0.00137597
964.0000,0.00137005
963.5000,0.00143666
963.0000,0.00140548
962.5000,0.00136329
962.0000,0.001338
961.5000,0.00132548
961.0000,0.00137536
960.5000,0.00128606
960.0000,0.00123651
959.5000,0.00128431
959.0000,0.0012502
958.5000,0.00123195
958.0000,0.00130414
957.5000,0.00130948
957.0000,0.00135861
956.5000,0.00137432
956.0000,0.00139041
955.5000,0.00139926
955.0000,0.00135797
954.5000,0.00129965
954.0000,0.00131545
953.5000,0.00134653
953.0000,0.0013272
952.5000,0.00137364
952.0000,0.00139659
951.5000,0.00135654
951.0000,0.00138977
950.5000,0.00134878
950.0000,0.00134467
949.5000,0.00123819
949.0000,0.0012316
948.5000,0.00123287
948.0000,0.00127987
947.5000,0.00128194
947.0000,0.00133675
946.5000,0.00139298
946.0000,0.00145792
945.5000,0.00138588
945.0000,0.00135014
944.5000,0.00134902
944.0000,0.00139719
943.5000,0.00133245
943.0000,0.00130824
942.5000,0.00126416
942.0000,0.00117557
941.5000,0.00109548
941.0000,0.00108978
940.5000,0.00104812
940.0000,0.00109053
939.5000,0.000996095
939.0000,0.00104769
938.5000,0.0010683
938.0000,0.00117367
937.5000,0.0011372
937.0000,0.00121076
936.5000,0.00118907
936.0000,0.00120336
935.5000,0.00116831
935.0000,0.00120796
934.5000,0.00117858
934.0000,0.00119299
933.5000,0.0012494
933.0000,0.00123578
932.5000,0.00119732
932.0000,0.00114595
931.5000,0.00107812
931.0000,0.00115515
930.5000,0.00111971
930.0000,0.00110994
929.5000,0.00116003
929.0000,0.00111821
928.5000,0.00116027
928.0000,0.00115195
927.5000,0.00113314
927.0000,0.00122646
926.5000,0.00122574
926.0000,0.00130569
925.5000,0.00136073
925.0000,0.00137671
924.5000,0.0014179
924.0000,0.00137088
923.5000,0.00144608
923.0000,0.00146077
922.5000,0.00146918
922.0000,0.00137429
921.5000,0.00137194
921.0000,0.00143589
920.5000,0.00142139
920.0000,0.00139942
919.5000,0.00143597
919.0000,0.00137192
918.5000,0.00139627
918.0000,0.00137799
917.5000,0.0013509
917.0000,0.00138303
916.5000,0.00139142
916.0000,0.00135698
915.5000,0.00139986
915.0000,0.00133867
914.5000,0.00131765
914.0000,0.00134593
913.5000,0.00132204
913.0000,0.00133737
912.5000,0.00123563
912.0000,0.00123626
911.5000,0.00120077
911.0000,0.00112584
910.5000,0.00113712
910.0000,0.00112971
909.5000,0.00111293
909.0000,0.00110807
908.5000,0.00105903
908.0000,0.00112986
907.5000,0.00115194
907.0000,0.00115124
906.5000,0.00108729
906.0000,0.00116897
905.5000,0.00124983
905.0000,0.00121844
904.5000,0.00113252
904.0000,0.00129485
903.5000,0.00116272
903.0000,0.00124463
902.5000,0.00112334
902.0000,0.00123585
901.5000,0.00119123
901.0000,0.0012672
900.5000,0.00124485
900.0000,0.00139111
899.5000,0.0013089
899.0000,0.00131885
898.5000,0.00131332
898.0000,0.00137283
897.5000,0.00139025
897.0000,0.00150448
896.5000,0.00158046
896.0000,0.00167164
895.5000,0.00157958
895.0000,0.00167244
894.5000,0.0016791
894.0000,0.00174689
893.5000,0.00169333
893.0000,0.00172666
892.5000,0.00172657
892.0000,0.00173582
891.5000,0.00158792
891.0000,0.00162493
890.5000,0.00154844
890.0000,0.00158657
889.5000,0.0013798
889.0000,0.00152445
888.5000,0.00158074
888.0000,0.00145419
887.5000,0.00157769
887.0000,0.00166555
886.5000,0.0017556
886.0000,0.00174772
885.5000,0.00183727
885.0000,0.0018485
884.5000,0.00187073
884.0000,0.0018545
883.5000,0.00184958
883.0000,0.00195875
882.5000,0.00207124
882.0000,0.00204008
881.5000,0.00190857
881.0000,0.00181151
880.5000,0.00179299
880.0000,0.00163021
879.5000,0.00181483
879.0000,0.00188524
878.5000,0.0018802
878.0000,0.00190564
877.5000,0.00198039
877.0000,0.00193374
876.5000,0.00196609
876.0000,0.00192718
875.5000,0.00196364
875.0000,0.00190114
874.5000,0.00199833
874.0000,0.00191478
873.5000,0.00211083
873.0000,0.00203548
872.5000,0.00187502
872.0000,0.00186773
871.5000,0.00189465
871.0000,0.00178065
870.5000,0.00192219
870.0000,0.00186277
869.5000,0.00181508
869.0000,0.00178136
868.5000,0.00183118
868.0000,0.00163551
867.5000,0.00168569
867.0000,0.00157481
866.5000,0.00149977
866.0000,0.00163228
865.5000,0.00180491
865.0000,0.00185154
864.5000,0.00183723
864.0000,0.00204018
863.5000,0.00207774
863.0000,0.00193106
862.5000,0.00202345
862.0000,0.00202189
861.5000,0.00199887
861.0000,0.002037
860.5000,0.00207097
860.0000,0.00212337
859.5000,0.00218388
859.0000,0.00213195
858.5000,0.00203484
858.0000,0.00213301
857.5000,0.00200645
857.0000,0.00187817
856.5000,0.00211649
856.0000,0.00222085
855.5000,0.00206823
855.0000,0.00224765
854.5000,0.00203851
854.0000,0.00213026
853.5000,0.00199451
853.0000,0.00207944
852.5000,0.00196399
852.0000,0.00209136
851.5000,0.00207508
851.0000,0.00223182
850.5000,0.00205504
850.0000,0.00194825
849.5000,0.00194516
849.0000,0.00189663
848.5000,0.00188677
848.0000,0.00185399
847.5000,0.00191047
847.0000,0.00188939
846.5000,0.00184567
846.0000,0.00179418
845.5000,0.00181211
845.0000,0.00180326
844.5000,0.00178942
844.0000,0.00174559
843.5000,0.00171767
843.0000,0.00174149
842.5000,0.00176745
842.0000,0.00177392
841.5000,0.00179988
841.0000,0.00178764
840.5000,0.00182292
840.0000,0.00187359
839.5000,0.00186112
839.0000,0.0018648
838.5000,0.00187709
838.0000,0.001861
837.5000,0.00189295
837.0000,0.00190649
836.5000,0.00186028
836.0000,0.00187781
835.5000,0.00187228
835.0000,0.00189551
834.5000,0.0019062
834.0000,0.00189966
833.5000,0.00185031
833.0000,0.00182791
832.5000,0.00183504
832.0000,0.00182649
831.5000,0.00191053
831.0000,0.00195757
830.5000,0.00199119
830.0000,0.00199149
829.5000,0.0020219
829.0000,0.00208207
828.5000,0.00209068
828.0000,0.00206758
827.5000,0.00209626
827.0000,0.00208629
826.5000,0.00212667
826.0000,0.00211895
825.5000,0.00215946
825.0000,0.00215328
824.5000,0.00216142
824.0000,0.00217995
823.5000,0.00217526
823.0000,0.00221096
822.5000,0.00221256
822.0000,0.00221892
821.5000,0.00222604
821.0000,0.00224149
820.5000,0.00225052
820.0000,0.00226483
819.5000,0.00230451
819.0000,0.00231104
818.5000,0.00225729
818.0000,0.00228253
817.5000,0.00232025
817.0000,0.00234127
816.5000,0.00235084
816.0000,0.00236919
815.5000,0.00230837
815.0000,0.00228687
814.5000,0.00232244
814.0000,0.00233367
813.5000,0.00232191
813.0000,0.00229358
812.5000,0.00228502
812.0000,0.00235268
811.5000,0.00233195
811.0000,0.00234157
810.5000,0.00232423
810.0000,0.00226228
809.5000,0.00226495
809.0000,0.00225871
808.5000,0.00225913
808.0000,0.00223074
807.5000,0.0022438
807.0000,0.00222331
806.5000,0.00224018
806.0000,0.00228194
805.5000,0.00226851
805.0000,0.00229975
804.5000,0.00230219
804.0000,0.0022918
803.5000,0.00229417
803.0000,0.00230017
802.5000,0.0023383
802.0000,0.00233836
801.5000,0.00232892
801.0000,0.00232357
800.5000,0.002343
800.0000,0.00234288
799.5000,0.00235719
799.0000,0.00238327
798.5000,0.00235648
798.0000,0.00239782
797.5000,0.00237602
797.0000,0.00239716
796.5000,0.00243322
796.0000,0.00240863
795.5000,0.00242912
795.0000,0.00243167
794.5000,0.00242847
794.0000,0.00250527
793.5000,0.00250111
793.0000,0.0025178
792.5000,0.00251661
792.0000,0.00252166
791.5000,0.00253437
791.0000,0.0025466
790.5000,0.00253734
790.0000,0.00252855
789.5000,0.00254447
789.0000,0.0025431
788.5000,0.00252421
788.0000,0.00253906
787.5000,0.00252196
787.0000,0.00251976
786.5000,0.00255112
786.0000,0.00254245
785.5000,0.00257084
785.0000,0.002569
784.5000,0.00256526
784.0000,0.00262934
783.5000,0.00265399
783.0000,0.00267033
782.5000,0.0026695
782.0000,0.0026537
781.5000,0.00267157
781.0000,0.00267674
780.5000,0.00266195
780.0000,0.00270448
779.5000,0.00267347
779.0000,0.00266736
778.5000,0.00268405
778.0000,0.00267443
777.5000,0.00273008
777.0000,0.00272147
776.5000,0.00272331
776.0000,0.00275841
775.5000,0.00277379
775.0000,0.0027931
774.5000,0.00280088
774.0000,0.00279708
773.5000,0.00280064
773.0000,0.00282095
772.5000,0.00287275
772.0000,0.00289633
771.5000,0.00288671
771.0000,0.00290904
770.5000,0.00290518
770.0000,0.00291355
769.5000,0.00287506
769.0000,0.00290577
768.5000,0.00292941
768.0000,0.002887
767.5000,0.00286081
767.0000,0.00285903
766.5000,0.00286039
766.0000,0.00289033
765.5000,0.00291118
765.0000,0.00292252
764.5000,0.00294771
764.0000,0.00292995
763.5000,0.00296095
763.0000,0.00299427
762.5000,0.00300063
762.0000,0.00300247
761.5000,0.00296968
761.0000,0.00299831
760.5000,0.00302017
760.0000,0.00299855
759.5000,0.0030074
759.0000,0.00301607
758.5000,0.00302854
758.0000,0.00305521
757.5000,0.00306858
757.0000,0.00307054
756.5000,0.00307273
756.0000,0.00307208
755.5000,0.00312186
755.0000,0.00312043
754.5000,0.00314728
754.0000,0.00316902
753.5000,0.00320442
753.0000,0.0032173
752.5000,0.00322396
752.0000,0.0032669
751.5000,0.00329232
751.0000,0.0033026
750.5000,0.00331798
